1/9/2026	9:11 AM
Pseudo Cross Correlation
Scattering angle:	130.0
Duration (s):	20
Wavelength (nm):	632.8
Refractive index:	1.330
Viscosity (mPas):	0.882
Temperature (K):	298.6
Laser intensity (mW):	8.516299
Average Count rate  A (kHz):	92.7
Average Count rate  B (kHz):	92.5
Intercept:	0.8756
Cumulant 1st	134.36
Cumulant 2nd	126.82	32.02
Cumulant 3rd	124.97	40.36

Lag time (s)         g2-1
1.250000E-8	0.884356
2.500000E-8	0.880992
3.750000E-8	0.866094
5.000000E-8	0.897331
6.250000E-8	0.888200
7.500000E-8	0.871380
8.750000E-8	0.877627
1.000000E-7	0.838220
1.125000E-7	0.902618
1.250000E-7	0.948753
1.375000E-7	0.902618
1.500000E-7	0.822841
1.625000E-7	0.857924
1.750000E-7	0.824283
1.875000E-7	0.915593
2.000000E-7	0.885797
2.125000E-7	0.848312
2.250000E-7	0.927608
2.375000E-7	0.904540
2.500000E-7	0.833414
2.625000E-7	0.848793
2.750000E-7	0.907423
2.875000E-7	0.922321
3.000000E-7	0.849754
3.125000E-7	0.895409
3.250000E-7	0.932894
3.375000E-7	0.837259
3.500000E-7	0.870419
3.625000E-7	0.950195
3.750000E-7	0.892045
3.875000E-7	0.850234
4.000000E-7	0.920399
4.125000E-7	0.932414
4.250000E-7	0.854079
4.375000E-7	0.886278
4.500000E-7	0.841103
4.625000E-7	0.852157
4.750000E-7	0.823322
4.875000E-7	0.909346
5.000000E-7	0.876666
5.125000E-7	0.901657
5.250000E-7	0.881472
5.375000E-7	0.843987
5.500000E-7	0.911749
5.625000E-7	0.831492
5.750000E-7	0.860807
5.875000E-7	0.857443
6.000000E-7	0.935778
6.125000E-7	0.939622
6.250000E-7	0.904540
6.375000E-7	0.865613
6.500000E-7	0.894928
6.625000E-7	0.880511
6.750000E-7	0.859846
6.875000E-7	0.902618
7.000000E-7	0.865132
7.125000E-7	0.921360
7.250000E-7	0.849754
7.375000E-7	0.849754
7.500000E-7	0.874744
7.625000E-7	0.885797
7.750000E-7	0.906943
7.875000E-7	0.891084
8.000000E-7	0.883875
8.250000E-7	0.883875
8.500000E-7	0.845909
8.750000E-7	0.880751
9.000000E-7	0.881472
9.250000E-7	0.880030
9.500000E-7	0.906462
9.750000E-7	0.873543
1.000000E-6	0.860327
1.025000E-6	0.904059
1.050000E-6	0.854560
1.075000E-6	0.908144
1.100000E-6	0.850955
1.125000E-6	0.861047
1.150000E-6	0.854800
1.175000E-6	0.881712
1.200000E-6	0.857443
1.225000E-6	0.863931
1.250000E-6	0.867776
1.275000E-6	0.841584
1.300000E-6	0.872341
1.325000E-6	0.920399
1.350000E-6	0.878348
1.375000E-6	0.834856
1.400000E-6	0.891324
1.425000E-6	0.870179
1.450000E-6	0.879310
1.475000E-6	0.863691
1.500000E-6	0.883394
1.525000E-6	0.909346
1.550000E-6	0.891805
1.575000E-6	0.884596
1.600000E-6	0.887720
1.650000E-6	0.851316
1.700000E-6	0.863811
1.750000E-6	0.868016
1.800000E-6	0.854319
1.850000E-6	0.869698
1.900000E-6	0.877267
1.950000E-6	0.877267
2.000000E-6	0.883154
2.050000E-6	0.854680
2.100000E-6	0.862129
2.150000E-6	0.874624
2.200000E-6	0.880391
2.250000E-6	0.878589
2.300000E-6	0.864892
2.350000E-6	0.863210
2.400000E-6	0.859125
2.450000E-6	0.887960
2.500000E-6	0.868376
2.550000E-6	0.895289
2.600000E-6	0.857804
2.650000E-6	0.871020
2.700000E-6	0.847831
2.750000E-6	0.878949
2.800000E-6	0.851796
2.850000E-6	0.856362
2.900000E-6	0.870899
2.950000E-6	0.891805
3.000000E-6	0.857203
3.050000E-6	0.857804
3.100000E-6	0.857323
3.150000E-6	0.877267
3.200000E-6	0.876786
3.300000E-6	0.867295
3.400000E-6	0.879730
3.500000E-6	0.854620
3.600000E-6	0.860747
3.700000E-6	0.859365
3.800000E-6	0.854740
3.900000E-6	0.862910
4.000000E-6	0.871740
4.100000E-6	0.855641
4.200000E-6	0.873122
4.300000E-6	0.873182
4.400000E-6	0.857083
4.500000E-6	0.877147
4.600000E-6	0.855761
4.700000E-6	0.867055
4.800000E-6	0.860867
4.900000E-6	0.866154
5.000000E-6	0.856122
5.100000E-6	0.870659
5.200000E-6	0.870899
5.300000E-6	0.866214
5.400000E-6	0.878408
5.500000E-6	0.885677
5.600000E-6	0.871861
5.700000E-6	0.875165
5.800000E-6	0.854500
5.900000E-6	0.859305
6.000000E-6	0.863751
6.100000E-6	0.863390
6.200000E-6	0.872401
6.300000E-6	0.884175
6.400000E-6	0.854920
6.600000E-6	0.854950
6.800000E-6	0.867746
7.000000E-6	0.856963
7.200000E-6	0.867325
7.400000E-6	0.852878
7.600000E-6	0.866064
7.800000E-6	0.865192
8.000000E-6	0.869428
8.200000E-6	0.847952
8.400000E-6	0.858224
8.600000E-6	0.850385
8.800000E-6	0.853899
9.000000E-6	0.846780
9.200000E-6	0.873062
9.400000E-6	0.861378
9.600000E-6	0.855070
9.800000E-6	0.841434
1.000000E-5	0.851706
1.020000E-5	0.856152
1.040000E-5	0.850955
1.060000E-5	0.864742
1.080000E-5	0.832093
1.100000E-5	0.853388
1.120000E-5	0.847201
1.140000E-5	0.854409
1.160000E-5	0.860807
1.180000E-5	0.841374
1.200000E-5	0.857713
1.220000E-5	0.861258
1.240000E-5	0.844618
1.260000E-5	0.846420
1.280000E-5	0.847922
1.320000E-5	0.854740
1.360000E-5	0.850039
1.400000E-5	0.851241
1.440000E-5	0.849814
1.480000E-5	0.847892
1.520000E-5	0.849258
1.560000E-5	0.841794
1.600000E-5	0.840518
1.640000E-5	0.842365
1.680000E-5	0.837079
1.720000E-5	0.834375
1.760000E-5	0.840938
1.800000E-5	0.837754
1.840000E-5	0.828518
1.880000E-5	0.831882
1.920000E-5	0.830456
1.960000E-5	0.845354
2.000000E-5	0.843146
2.040000E-5	0.830486
2.080000E-5	0.834120
2.120000E-5	0.827302
2.160000E-5	0.829344
2.200000E-5	0.836508
2.240000E-5	0.838776
2.280000E-5	0.830080
2.320000E-5	0.821219
2.360000E-5	0.827452
2.400000E-5	0.820934
2.440000E-5	0.822766
2.480000E-5	0.825319
2.520000E-5	0.825169
2.560000E-5	0.827677
2.640000E-5	0.826356
2.720000E-5	0.826198
2.800000E-5	0.818914
2.880000E-5	0.815130
2.960000E-5	0.816594
3.040000E-5	0.817127
3.120000E-5	0.809047
3.200000E-5	0.811075
3.280000E-5	0.812336
3.360000E-5	0.810887
3.440000E-5	0.810939
3.520000E-5	0.800742
3.600000E-5	0.804865
3.680000E-5	0.802424
3.760000E-5	0.798136
3.840000E-5	0.801606
3.920000E-5	0.800209
4.000000E-5	0.801471
4.080000E-5	0.796792
4.160000E-5	0.790342
4.240000E-5	0.792490
4.320000E-5	0.790868
4.400000E-5	0.783321
4.480000E-5	0.786422
4.560000E-5	0.789261
4.640000E-5	0.788367
4.720000E-5	0.784027
4.800000E-5	0.781316
4.880000E-5	0.780227
4.960000E-5	0.772290
5.040000E-5	0.776082
5.120000E-5	0.779169
5.280000E-5	0.779756
5.440000E-5	0.770318
5.600000E-5	0.766353
5.760000E-5	0.763744
5.920000E-5	0.766593
6.080000E-5	0.761630
6.240000E-5	0.756193
6.400000E-5	0.755687
6.560000E-5	0.750277
6.720000E-5	0.750285
6.880000E-5	0.747281
7.040000E-5	0.751645
7.200000E-5	0.739541
7.360000E-5	0.738163
7.520000E-5	0.734562
7.680000E-5	0.734135
7.840000E-5	0.729728
8.000000E-5	0.731569
8.160000E-5	0.726098
8.320000E-5	0.726271
8.480000E-5	0.727315
8.640000E-5	0.723234
8.800000E-5	0.714674
8.960000E-5	0.711970
9.120000E-5	0.713416
9.280000E-5	0.710559
9.440000E-5	0.710206
9.600000E-5	0.702503
9.760000E-5	0.706212
9.920000E-5	0.706813
0.000101	0.697367
0.000102	0.690497
0.000106	0.690948
0.000109	0.686920
0.000112	0.680134
0.000115	0.672279
0.000118	0.670363
0.000122	0.667183
0.000125	0.661115
0.000128	0.660268
0.000131	0.651156
0.000134	0.651462
0.000138	0.641321
0.000141	0.636076
0.000144	0.633493
0.000147	0.628696
0.000150	0.626807
0.000154	0.622495
0.000157	0.618640
0.000160	0.613613
0.000163	0.608458
0.000166	0.606219
0.000170	0.599861
0.000173	0.598832
0.000176	0.593324
0.000179	0.587413
0.000182	0.584680
0.000186	0.579694
0.000189	0.573850
0.000192	0.573024
0.000195	0.566752
0.000198	0.563608
0.000202	0.557899
0.000205	0.557862
0.000211	0.550397
0.000218	0.542024
0.000224	0.534387
0.000230	0.526007
0.000237	0.518744
0.000243	0.513269
0.000250	0.507449
0.000256	0.498954
0.000262	0.489606
0.000269	0.483717
0.000275	0.479480
0.000282	0.472048
0.000288	0.466384
0.000294	0.460236
0.000301	0.451123
0.000307	0.446749
0.000314	0.441067
0.000320	0.436407
0.000326	0.429299
0.000333	0.422382
0.000339	0.418508
0.000346	0.413385
0.000352	0.405761
0.000358	0.401446
0.000365	0.396714
0.000371	0.390475
0.000378	0.387139
0.000384	0.380306
0.000390	0.375967
0.000397	0.370723
0.000403	0.366266
0.000410	0.359190
0.000422	0.350835
0.000435	0.341560
0.000448	0.330871
0.000461	0.322727
0.000474	0.313747
0.000486	0.305063
0.000499	0.298882
0.000512	0.289525
0.000525	0.282895
0.000538	0.274666
0.000550	0.267786
0.000563	0.260678
0.000576	0.251444
0.000589	0.245557
0.000602	0.239018
0.000614	0.234411
0.000627	0.226979
0.000640	0.222229
0.000653	0.216248
0.000666	0.211578
0.000678	0.207840
0.000691	0.200971
0.000704	0.197023
0.000717	0.191649
0.000730	0.185888
0.000742	0.181005
0.000755	0.176806
0.000768	0.171777
0.000781	0.166213
0.000794	0.164834
0.000806	0.159171
0.000819	0.156780
0.000845	0.149078
0.000870	0.142106
0.000896	0.134230
0.000922	0.126526
0.000947	0.120250
0.000973	0.114406
0.000998	0.108944
0.001024	0.103962
0.001050	0.098727
0.001075	0.094106
0.001101	0.089212
0.001126	0.084631
0.001152	0.080739
0.001178	0.076054
0.001203	0.073832
0.001229	0.070359
0.001254	0.067039
0.001280	0.064061
0.001306	0.061154
0.001331	0.057790
0.001357	0.055489
0.001382	0.053063
0.001408	0.050977
0.001434	0.048574
0.001459	0.046869
0.001485	0.043596
0.001510	0.042239
0.001536	0.040804
0.001562	0.038401
0.001587	0.037151
0.001613	0.036440
0.001638	0.033889
0.001690	0.032963
0.001741	0.031322
0.001792	0.029592
0.001843	0.027207
0.001894	0.026129
0.001946	0.025631
0.001997	0.024386
0.002048	0.023025
0.002099	0.021408
0.002150	0.019466
0.002202	0.018031
0.002253	0.016676
0.002304	0.015104
0.002355	0.014755
0.002406	0.012012
0.002458	0.010233
0.002509	0.010155
0.002560	0.009515
0.002611	0.008770
0.002662	0.008870
0.002714	0.008806
0.002765	0.008351
0.002816	0.007918
0.002867	0.008309
0.002918	0.007073
0.002970	0.007344
0.003021	0.007170
0.003072	0.008500
0.003123	0.008473
0.003174	0.008685
0.003226	0.008537
0.003277	0.008270
0.003379	0.009097
0.003482	0.009481
0.003584	0.011272
0.003686	0.011295
0.003789	0.011621
0.003891	0.010678
0.003994	0.009600
0.004096	0.010294
0.004198	0.010961
0.004301	0.009533
0.004403	0.009151
0.004506	0.009800
0.004608	0.010080
0.004710	0.010672
0.004813	0.010860
0.004915	0.010311
0.005018	0.009144
0.005120	0.010786
0.005222	0.010294
0.005325	0.011537
0.005427	0.012607
0.005530	0.013329
0.005632	0.012355
0.005734	0.012603
0.005837	0.012740
0.005939	0.011851
0.006042	0.011285
0.006144	0.011088
0.006246	0.010924
0.006349	0.009882
0.006451	0.010190
0.006554	0.010302
0.006758	0.009265
0.006963	0.009991
0.007168	0.011518
0.007373	0.006872
0.007578	0.005881
0.007782	0.006070
0.007987	0.007752
0.008192	0.009767
0.008397	0.009215
0.008602	0.010919
0.008806	0.009546
0.009011	0.008106
0.009216	0.008227
0.009421	0.010446
0.009626	0.011575
0.009830	0.009362
0.010035	0.009727
0.010240	0.010921
0.010445	0.011279
0.010650	0.012142
0.010854	0.011116
0.011059	0.010240
0.011264	0.010479
0.011469	0.011156
0.011674	0.012237
0.011878	0.012421
0.012083	0.013654
0.012288	0.015105
0.012493	0.016030
0.012698	0.016915
0.012902	0.015475
0.013107	0.012905
0.013517	0.008241
0.013926	0.005796
0.014336	0.002131
0.014746	0.001746
0.015155	0.000397
0.015565	4.789614E-5
0.015974	0.002586
0.016384	0.006237
0.016794	0.010582
0.017203	0.012275
0.017613	0.010488
0.018022	0.007665
0.018432	0.005236
0.018842	0.001652
0.019251	0.002201
0.019661	0.006596
0.020070	0.010374
0.020480	0.010906
0.020890	0.012488
0.021299	0.010701
0.021709	0.011650
0.022118	0.011609
0.022528	0.008465
0.022938	0.003109
0.023347	0.003913
0.023757	0.006005
0.024166	0.006476
0.024576	0.005841
0.024986	0.006724
0.025395	0.004016
0.025805	0.002346
0.026214	0.000135
0.027034	0.001581
0.027853	0.003481
0.028672	0.000434
0.029491	-0.000652
0.030310	-0.004662
0.031130	0.002562
0.031949	0.007755
0.032768	0.004363
0.033587	0.000146
0.034406	0.000629
0.035226	0.001635
0.036045	0.003276
0.036864	0.008335
0.037683	0.007523
0.038502	0.005096
0.039322	0.005524
0.040141	0.003930
0.040960	0.005447
0.041779	0.002782
0.042598	0.004916
0.043418	0.006267
0.044237	0.004477
0.045056	0.005059
0.045875	0.004186
0.046694	0.003341
0.047514	0.005762
0.048333	0.009089
0.049152	0.008666
0.049971	0.004993
0.050790	0.005196
0.051610	0.004403
0.052429	0.000601
0.054067	0.006588
0.055706	0.008598
0.057344	0.006312
0.058982	0.005826
0.060621	-0.000274
0.062259	0.003332
0.063898	0.013094
0.065536	0.007019
0.067174	0.006392
0.068813	0.007630
0.070451	0.011201
0.072090	0.009428
0.073728	0.003005
0.075366	0.005789
0.077005	0.010228
0.078643	-0.002295
0.080282	-0.007335
0.081920	0.003902
0.083558	0.013519
0.085197	0.005514
0.086835	0.004037
0.088474	0.002104
0.090112	0.012063
0.091750	0.006958
0.093389	0.005966
0.095027	0.004251
0.096666	0.009619
0.098304	0.002558
0.099942	0.002526
0.101581	0.004363
0.103219	0.007464
0.104858	0.008741
0.108134	0.006046
0.111411	0.003102
0.114688	0.005855
0.117965	0.002670
0.121242	0.002323
0.124518	0.005984
0.127795	0.006921
0.131072	0.001264
0.134349	0.002303
0.137626	0.003514
0.140902	0.005617
0.144179	0.002546
0.147456	0.006502
0.150733	0.006205
0.154010	0.001284
0.157286	0.004208
0.160563	-0.000416
0.163840	0.004452
0.167117	-0.000339
0.170394	0.001912
0.173670	0.004000
0.176947	0.003297
0.180224	0.008254
0.183501	0.000719
0.186778	0.003440
0.190054	0.003847
0.193331	0.003171
0.196608	0.003798
0.199885	0.000413
0.203162	0.002363
0.206438	0.000267
0.209715	-0.000924
0.216269	0.003209
0.222822	0.000982
0.229376	0.002679
0.235930	0.005066
0.242483	0.005714
0.249037	0.002817
0.255590	0.004610
0.262144	0.006300
0.268698	-0.000545
0.275251	0.001171
0.281805	0.001716
0.288358	0.002026
0.294912	0.001367
0.301466	0.003398
0.308019	0.000991
0.314573	0.001164
0.321126	0.004203
0.327680	0.002806
0.334234	0.002077
0.340787	-0.000790
0.347341	0.003378
0.353894	0.003027
0.360448	0.004192
0.367002	0.004697
0.373555	0.002922
0.380109	0.001014
0.386662	0.001552
0.393216	0.001035
0.399770	-0.002098
0.406323	0.005101
0.412877	0.006698
0.419430	0.000478
0.432538	0.002260
0.445645	5.108373E-5
0.458752	-0.002135
0.471859	-0.000761
0.484966	-0.000108
0.498074	-0.000778
0.511181	-0.003042
0.524288	0.000612
0.537395	-0.000721
0.550502	-0.000626
0.563610	0.002234
0.576717	-0.000906
0.589824	-0.000372
0.602931	0.003071
0.616038	-0.001931
0.629146	0.000617
0.642253	0.001252
0.655360	0.001573
0.668467	0.001766
0.681574	0.002473
0.694682	0.002095
0.707789	-0.000610
0.720896	-0.000245
0.734003	0.000845
0.747110	0.002841
0.760218	0.000583
0.773325	4.186718E-5
0.786432	-0.000625
0.799539	0.002323
0.812646	0.001826
0.825754	-0.000125
0.838861	0.002722
0.865075	-0.001589
0.891290	0.001664
0.917504	-0.000949
0.943718	0.001788
0.969933	-9.649387E-7
0.996147	0.002456
1.022362	0.001095
1.048576	0.001663
1.074790	0.001632
1.101005	0.000551
1.127219	-0.001322
1.153434	-0.000736
1.179648	0.000999
1.205862	0.001019
1.232077	0.000375
1.258291	-0.002398
1.284506	-0.000955
1.310720	-0.001889
1.336934	-0.001866
1.363149	0.000188
1.389363	-0.000881
1.415578	-0.002551
1.441792	8.883032E-5
1.468006	-0.001155
1.494221	-0.000827
1.520435	-0.000616
1.546650	-4.296307E-5
1.572864	0.001187
1.599078	0.000513
1.625293	0.001583
1.651507	-0.000785
1.677722	0.001522
1.730150	0.000574
1.782579	-0.000391
1.835008	0.000644
1.887437	0.000951
1.939866	0.000689
1.992294	0.000929
2.044723	-0.000373
2.097152	0.000224
2.149581	-5.068063E-5
2.202010	-0.000241
2.254438	0.001237
2.306867	-0.003088
2.359296	0.000181
2.411725	0.000476
2.464154	-0.000541
2.516582	0.000811
2.569011	-0.000178
2.621440	0.000356
2.673869	0.000394
2.726298	0.001305
2.778726	0.001259
2.831155	0.000232
2.883584	-0.001549
2.936013	-0.001459
2.988442	0.000273
3.040870	0.000101
3.093299	-0.000292
3.145728	0.000595
3.198157	-3.363875E-5
3.250586	0.000700
3.303015	-0.000500
3.355443	0.000987
3.460301	0.000565
3.565158	-0.000260
3.670016	-0.001192
3.774873	0.001838
3.879731	-0.000109
3.984589	-0.000105
4.089447	0.000431
4.194304	0.000207
4.299161	0.000607
4.404019	0.000225
4.508877	-0.000642
4.613734	-0.001700
4.718592	-0.000873
4.823450	-0.001765
4.928307	-0.001072
5.033165	-0.001315
5.138022	-0.000505
5.242880	-5.432576E-5
5.347738	8.454618E-5
5.452595	-0.000936
5.557453	-0.001712
5.662311	-0.001091
5.767168	0.000330
5.872025	0.000858
5.976883	0.000453
6.081741	-0.000770
6.186598	0.000659
6.291456	-0.000273
6.396314	-0.002004
6.501171	0.001131
6.606029	5.334208E-5
6.710886	-0.000721
6.920601	0.002714
7.130317	0.000232
7.340032	0.000380
7.549747	0.001492
7.759462	0.000134
7.969178	0.000574
8.178893	0.000518
8.388608	0.000186
8.598323	0.002330
8.808039	-0.001837
9.017754	0.000468
9.227468	0.000108
9.437184	-0.001207
9.646899	0.000318
9.856614	-0.001669
10.066330	-0.000907
10.276045	-0.000897
10.485760	-0.003336
10.695476	0.000324
10.905190	-0.001051
11.114905	0.000994
11.324621	0.001027
11.534336	-0.000560
11.744051	0.000339
11.953767	9.016326E-6
12.163482	0.000197
12.373197	-0.000156
12.582912	-0.003817
12.792627	-0.002511
13.002342	-0.002215
13.212058	-0.001995
13.421773	-0.001768
13.841203	0.001672
14.260633	0.002348
14.680064	-0.003151
15.099494	0.001334
15.518925	0.001892
15.938355	0.006275
16.357786	-0.002283
16.777216	-0.004039
17.196646	-0.004344
17.616077	0.007669
18.035507	0.001271
18.454937	0.000000
18.874369	NaN
19.293798	NaN
19.713228	NaN
20.132660	NaN
20.552090	NaN
20.971519	NaN
21.390951	NaN
21.810381	NaN
22.229811	NaN
22.649242	NaN
23.068672	NaN
23.488102	NaN
23.907534	NaN
24.326963	NaN
24.746393	NaN
25.165825	NaN
25.585255	NaN
26.004684	NaN
26.424116	NaN
26.843546	NaN
27.682405	NaN
28.521267	NaN
29.360128	NaN
30.198988	NaN
31.037849	NaN
31.876711	NaN
32.715572	NaN
33.554432	NaN
34.393291	NaN
35.232155	NaN
36.071014	NaN
36.909874	NaN
37.748737	NaN
38.587597	NaN
39.426456	NaN
40.265320	NaN
41.104179	NaN
41.943039	NaN
42.781902	NaN
43.620762	NaN
44.459621	NaN
45.298485	NaN
46.137344	NaN
46.976204	NaN
47.815067	NaN
48.653927	NaN
49.492786	NaN
50.331650	NaN
51.170509	NaN
52.009369	NaN
52.848232	NaN
53.687092	NaN
55.364811	NaN
57.042534	NaN
58.720257	NaN
60.397976	NaN
62.075699	NaN
63.753422	NaN
65.431145	NaN
67.108864	NaN
68.786583	NaN
70.464310	NaN
72.142029	NaN
73.819748	NaN
75.497475	NaN
77.175194	NaN
78.852913	NaN
80.530640	NaN
82.208359	NaN
83.886078	NaN
85.563805	NaN
87.241524	NaN
88.919243	NaN
90.596970	NaN
92.274689	NaN
93.952408	NaN
95.630135	NaN
97.307854	NaN
98.985573	NaN
100.663300	NaN
102.341019	NaN
104.018738	NaN
105.696465	NaN
107.374184	NaN
110.729622	NaN
114.085068	NaN
117.440514	NaN
120.795952	NaN
124.151398	NaN
127.506844	NaN
130.862289	NaN
134.217728	NaN
137.573166	NaN
140.928619	NaN
144.284058	NaN
147.639496	NaN
150.994949	NaN
154.350388	NaN
157.705826	NaN
161.061279	NaN
164.416718	NaN
167.772156	NaN
171.127609	NaN
174.483047	NaN
177.838486	NaN
181.193939	NaN
184.549377	NaN
187.904816	NaN
191.260269	NaN
194.615707	NaN
197.971146	NaN
201.326599	NaN
204.682037	NaN
208.037476	NaN
211.392929	NaN
214.748367	NaN
221.459244	NaN
228.170135	NaN
234.881027	NaN
241.591904	NaN
248.302795	NaN
255.013687	NaN
261.724579	NaN
268.435455	NaN
275.146332	NaN
281.857239	NaN
288.568115	NaN
295.278992	NaN
301.989899	NaN
308.700775	NaN
315.411652	NaN
322.122559	NaN
328.833435	NaN
335.544312	NaN
342.255219	NaN
348.966095	NaN
355.676971	NaN
362.387878	NaN
369.098755	NaN
375.809631	NaN
382.520538	NaN
389.231415	NaN
395.942291	NaN
402.653198	NaN
409.364075	NaN
416.074951	NaN
422.785858	NaN
429.496735	NaN
442.918488	NaN
456.340271	NaN
469.762054	NaN
483.183807	NaN
496.605591	NaN
510.027374	NaN
523.449158	NaN
536.870911	NaN
550.292664	NaN
563.714478	NaN
577.136230	NaN
590.557983	NaN
603.979797	NaN
617.401550	NaN
630.823303	NaN
644.245117	NaN
657.666870	NaN
671.088623	NaN
684.510437	NaN
697.932190	NaN
711.353943	NaN
724.775757	NaN
738.197510	NaN
751.619263	NaN
765.041077	NaN
778.462830	NaN
791.884583	NaN
805.306396	NaN
818.728149	NaN
832.149902	NaN
845.571716	NaN
858.993469	NaN
885.836975	NaN
912.680542	NaN
939.524109	NaN
966.367615	NaN
993.211182	NaN
1020.054749	NaN
1046.898315	NaN
1073.741821	NaN
1100.585327	NaN
1127.428955	NaN
1154.272461	NaN
1181.115967	NaN
1207.959595	NaN
1234.803101	NaN
1261.646606	NaN
1288.490234	NaN
1315.333740	NaN
1342.177246	NaN
1369.020874	NaN
1395.864380	NaN
1422.707886	NaN
1449.551514	NaN
1476.395020	NaN
1503.238525	NaN
1530.082153	NaN
1556.925659	NaN
1583.769165	NaN
1610.612793	NaN
1637.456299	NaN
1664.299805	NaN
1691.143433	NaN
1717.986938	NaN
1771.673950	NaN
1825.361084	NaN
1879.048218	NaN
1932.735229	NaN
1986.422363	NaN
2040.109497	NaN
2093.796631	NaN
2147.483643	NaN
2201.170654	NaN
2254.857910	NaN
2308.544922	NaN
2362.231934	NaN
2415.919189	NaN
2469.606201	NaN
2523.293213	NaN
2576.980469	NaN
2630.667480	NaN
2684.354492	NaN
2738.041748	NaN
2791.728760	NaN
2845.415771	NaN
2899.103027	NaN
2952.790039	NaN
3006.477051	NaN
3060.164307	NaN
3113.851318	NaN
3167.538330	NaN
3221.225586	NaN
3274.912598	NaN
3328.599609	NaN
3382.286865	NaN
3435.973877	NaN
0.000000	NaN
0.000000	NaN
0.000000	NaN
0.000000	NaN
0.000000	NaN
0.000000	NaN
0.000000	NaN
0.000000	NaN
0.000000	NaN
0.000000	NaN
0.000000	NaN
0.000000	NaN
0.000000	NaN
0.000000	NaN
0.000000	NaN
0.000000	NaN
0.000000	NaN
0.000000	NaN
0.000000	NaN
0.000000	NaN
0.000000	NaN
0.000000	NaN
0.000000	NaN
0.000000	NaN
0.000000	NaN
0.000000	NaN
0.000000	NaN
0.000000	NaN
0.000000	NaN
0.000000	NaN
0.000000	NaN
0.000000	NaN

Count Rate History (KHz)  CR CHA / CR CHB
0.000000	97.093582	99.868774
0.104858	89.941025	92.363358
0.209715	96.626282	97.017288
0.314573	86.193085	85.153580
0.419430	94.213486	94.757080
0.524288	100.898743	104.761124
0.629146	93.708038	89.578629
0.734003	96.712112	105.600357
0.838861	159.015656	163.831711
0.943718	162.363052	160.541534
1.048576	111.503601	113.153458
1.153434	117.702484	120.086670
1.258291	107.584000	106.735229
1.363149	92.344284	92.086792
1.468006	79.975128	78.935623
1.572864	105.085373	104.303360
1.677722	90.303421	90.541840
1.782579	89.397430	89.206696
1.887437	94.232559	95.214844
1.992294	110.435486	111.961365
2.097152	92.391968	92.706680
2.202010	87.528229	84.476471
2.306867	78.239441	74.348450
2.411725	97.579956	96.235275
2.516582	92.077255	95.863342
2.621440	108.814240	107.069016
2.726298	81.033707	82.921982
2.831155	96.120834	96.082687
2.936013	100.164413	98.724365
3.040870	95.252991	94.852448
3.145728	86.908340	82.311630
3.250586	93.536377	92.992783
3.355443	76.475143	77.152252
3.460301	95.615387	91.066360
3.565158	100.507736	108.823776
3.670016	93.374252	87.804794
3.774874	97.322464	105.104446
3.879731	74.720383	75.101852
3.984589	97.312927	94.966888
4.089446	90.646744	91.352463
4.194304	95.777512	95.529556
4.299162	100.612640	99.191666
4.404019	99.000931	100.488663
4.508877	94.871521	89.817047
4.613734	88.701248	90.408325
4.718592	99.725723	99.306107
4.823450	100.364685	98.066330
4.928307	82.283020	81.472397
5.033165	81.930161	85.792542
5.138022	108.556747	103.588104
5.242880	85.077286	82.893372
5.347738	99.964142	103.883743
5.452595	82.817078	79.784393
5.557453	90.227127	88.481903
5.662310	72.956085	73.194504
5.767168	90.141296	89.330673
5.872026	74.529648	70.896149
5.976883	91.018677	92.163086
6.081741	83.198547	80.070496
6.186598	95.787048	97.961426
6.291456	101.470947	99.277496
6.396314	80.747604	79.183578
6.501171	88.291168	86.078644
6.606029	86.584091	87.347031
6.710886	85.144043	90.055466
6.815744	94.909668	95.205307
6.920602	85.000992	84.648132
7.025459	112.943649	113.096237
7.130317	84.304810	82.368851
7.235174	92.105865	89.092255
7.340032	88.109970	89.187622
7.444890	87.566376	88.033676
7.549747	91.047287	90.484619
7.654605	91.915131	92.601776
7.759462	101.547241	102.901459
7.864320	95.491409	97.198486
7.969178	87.451935	85.372925
8.074035	94.327927	94.833374
8.178893	96.950531	98.810196
8.283750	98.228455	98.819733
8.388608	78.763962	76.694489
8.493466	105.781555	105.714798
8.598323	92.868805	92.077255
8.703181	82.340240	83.789825
8.808038	93.975067	92.887878
8.912896	94.013214	96.044540
9.017754	83.293915	83.923340
9.122611	100.679398	98.981857
9.227469	89.540482	87.766647
9.332326	83.694458	82.235336
9.437184	111.770630	113.248825
9.542042	104.179382	104.026794
9.646899	89.893341	91.228485
9.751757	84.333420	83.580017
9.856614	82.788467	82.368851
9.961472	84.800720	82.931519
10.066330	96.263885	95.252991
10.171187	99.754333	102.415085
10.276045	93.278885	94.785690
10.380902	90.284348	90.427399
10.485760	97.494125	96.416473
10.590618	82.817078	81.043243
10.695475	86.059570	83.837509
10.800333	88.977814	88.834763
10.905190	88.949203	87.299347
11.010048	95.624924	93.755722
11.114906	100.784302	98.743439
11.219763	75.874329	74.243546
11.324621	83.227158	83.894730
11.429478	70.228577	69.322586
11.534336	101.079941	101.842880
11.639194	93.603134	90.856552
11.744051	84.877014	83.866119
11.848909	82.893372	82.149506
11.953766	96.273422	98.142624
12.058624	90.780258	93.631744
12.163482	100.879669	100.450516
12.268339	103.044510	104.351044
12.373197	83.694458	81.396103
12.478054	93.975067	94.881058
12.582912	84.600449	83.990097
12.687770	94.223022	92.973709
12.792627	89.616776	89.025497
12.897485	92.744827	100.889206
13.002342	102.176666	98.972321
13.107200	77.152252	76.065063
13.212058	90.112686	91.419220
13.316915	93.698502	91.543198
13.421773	77.590942	81.100464
13.526630	86.221695	83.599091
13.631488	74.148178	75.082779
13.736346	82.159042	83.436966
13.841203	87.118149	84.905624
13.946061	91.753006	89.883804
14.050918	92.887878	92.344284
14.155776	86.622238	87.089539
14.260634	79.412460	79.202652
14.365491	91.066360	92.248917
14.470349	75.378418	73.928833
14.575206	86.631775	89.807510
14.680064	101.146698	94.385147
14.784922	102.243423	106.039047
14.889779	94.957352	97.064972
14.994637	95.577240	91.266632
15.099494	97.780228	102.033615
15.204352	97.198486	93.221664
15.309210	88.062286	90.112686
15.414067	99.573135	98.810196
15.518925	84.056854	80.137253
15.623782	84.209442	84.419250
15.728640	96.654892	95.424652
15.833498	89.731216	86.746216
15.938355	96.235275	94.518661
16.043213	110.034943	112.485886
16.148070	78.592300	73.080063
16.252928	98.495483	99.067688
16.357786	98.934174	96.435547
16.462643	100.946426	98.409653
16.567501	94.213486	94.652176
16.672358	85.268021	87.356567
16.777216	92.182159	95.281601
16.882074	107.154846	104.694366
16.986931	101.900101	99.105835
17.091789	104.131699	107.870102
17.196646	90.541840	87.890625
17.301504	100.097656	102.396011
17.406362	89.359283	87.499619
17.511219	80.547333	80.385208
17.616077	93.288422	94.604492
17.720934	81.720352	80.099106
17.825792	91.552734	90.742111
17.930650	86.421967	86.412430
18.035507	100.030899	100.326538
18.140365	79.603195	79.460144
18.245222	80.347061	78.668594
18.350080	82.750320	83.827972
18.454938	106.620789	107.250214
18.559795	91.943741	88.434219
18.664653	86.936951	85.353851
18.769510	95.815659	99.725723
18.874368	98.314285	93.212128
18.979226	80.413818	80.375671
19.084083	105.905533	105.619431
19.188941	95.005035	94.232559
19.293798	88.939667	89.673996
