1/9/2026	9:09 AM
Pseudo Cross Correlation
Scattering angle:	80.0
Duration (s):	20
Wavelength (nm):	632.8
Refractive index:	1.330
Viscosity (mPas):	0.882
Temperature (K):	298.5
Laser intensity (mW):	8.528686
Average Count rate  A (kHz):	118.7
Average Count rate  B (kHz):	120.8
Intercept:	0.9477
Cumulant 1st	798.89
Cumulant 2nd	316.99	141.08
Cumulant 3rd	194.18	102.33

Lag time (s)         g2-1
1.250000E-8	1.079436
2.500000E-8	1.037421
3.750000E-8	1.060950
5.000000E-8	1.078035
6.250000E-8	1.042463
7.500000E-8	1.060389
8.750000E-8	1.099323
1.000000E-7	1.050586
1.125000E-7	1.025097
1.250000E-7	1.057028
1.375000E-7	1.051426
1.500000E-7	1.068232
1.625000E-7	1.041903
1.750000E-7	1.078035
1.875000E-7	1.074674
2.000000E-7	1.038822
2.125000E-7	1.073274
2.250000E-7	1.071873
2.375000E-7	1.055908
2.500000E-7	1.071033
2.625000E-7	1.013053
2.750000E-7	1.082237
2.875000E-7	1.034060
3.000000E-7	1.087839
3.125000E-7	1.012213
3.250000E-7	1.071033
3.375000E-7	1.094561
3.500000E-7	1.052266
3.625000E-7	1.006051
3.750000E-7	0.983923
3.875000E-7	1.058429
4.000000E-7	1.043584
4.125000E-7	1.029019
4.250000E-7	1.055628
4.375000E-7	1.067952
4.500000E-7	1.026218
4.625000E-7	1.036021
4.750000E-7	1.004930
4.875000E-7	1.025377
5.000000E-7	1.056748
5.125000E-7	1.054787
5.250000E-7	1.055068
5.375000E-7	1.013613
5.500000E-7	1.041343
5.625000E-7	1.072994
5.750000E-7	1.055348
5.875000E-7	1.030979
6.000000E-7	1.095401
6.125000E-7	1.047785
6.250000E-7	1.041343
6.375000E-7	1.046945
6.500000E-7	1.055068
6.625000E-7	1.064311
6.750000E-7	1.043303
6.875000E-7	1.039942
7.000000E-7	1.071313
7.125000E-7	1.091200
7.250000E-7	1.007171
7.375000E-7	1.037421
7.500000E-7	1.086158
7.625000E-7	1.014173
7.750000E-7	1.080836
7.875000E-7	1.088119
8.000000E-7	1.047505
8.250000E-7	1.056888
8.500000E-7	1.052547
8.750000E-7	1.037701
9.000000E-7	1.068652
9.250000E-7	1.070753
9.500000E-7	1.069352
9.750000E-7	1.029439
1.000000E-6	1.061930
1.025000E-6	1.056048
1.050000E-6	1.058429
1.075000E-6	1.064451
1.100000E-6	1.065991
1.125000E-6	1.060389
1.150000E-6	1.058569
1.175000E-6	1.066131
1.200000E-6	1.080556
1.225000E-6	1.045824
1.250000E-6	1.068372
1.275000E-6	1.054227
1.300000E-6	1.054647
1.325000E-6	1.057728
1.350000E-6	1.046384
1.375000E-6	1.045824
1.400000E-6	1.048065
1.425000E-6	1.037421
1.450000E-6	1.075655
1.475000E-6	1.016134
1.500000E-6	1.036861
1.525000E-6	1.030419
1.550000E-6	1.058569
1.575000E-6	1.078035
1.600000E-6	1.021596
1.650000E-6	1.026008
1.700000E-6	1.077335
1.750000E-6	1.046104
1.800000E-6	1.036021
1.850000E-6	1.060459
1.900000E-6	1.053457
1.950000E-6	1.042673
2.000000E-6	1.045474
2.050000E-6	1.045264
2.100000E-6	1.056118
2.150000E-6	1.043934
2.200000E-6	1.076005
2.250000E-6	1.039802
2.300000E-6	1.059619
2.350000E-6	1.051286
2.400000E-6	1.034410
2.450000E-6	1.048695
2.500000E-6	1.062560
2.550000E-6	1.054157
2.600000E-6	1.047785
2.650000E-6	1.048275
2.700000E-6	1.046875
2.750000E-6	1.041203
2.800000E-6	1.044004
2.850000E-6	1.061230
2.900000E-6	1.044074
2.950000E-6	1.053527
3.000000E-6	1.039592
3.050000E-6	1.045334
3.100000E-6	1.049466
3.150000E-6	1.035181
3.200000E-6	1.052687
3.300000E-6	1.041343
3.400000E-6	1.067252
3.500000E-6	1.041343
3.600000E-6	1.044914
3.700000E-6	1.025972
3.800000E-6	1.037807
3.900000E-6	1.063085
4.000000E-6	1.050061
4.100000E-6	1.032485
4.200000E-6	1.050516
4.300000E-6	1.061965
4.400000E-6	1.054367
4.500000E-6	1.055838
4.600000E-6	1.054857
4.700000E-6	1.064066
4.800000E-6	1.039137
4.900000E-6	1.059059
5.000000E-6	1.048415
5.100000E-6	1.056083
5.200000E-6	1.050166
5.300000E-6	1.050936
5.400000E-6	1.044844
5.500000E-6	1.042708
5.600000E-6	1.046314
5.700000E-6	1.027058
5.800000E-6	1.062910
5.900000E-6	1.041238
6.000000E-6	1.038297
6.100000E-6	1.034235
6.200000E-6	1.038122
6.300000E-6	1.053737
6.400000E-6	1.055032
6.600000E-6	1.050586
6.800000E-6	1.039225
7.000000E-6	1.052774
7.200000E-6	1.041150
7.400000E-6	1.050271
7.600000E-6	1.039242
7.800000E-6	1.032450
8.000000E-6	1.039802
8.200000E-6	1.045649
8.400000E-6	1.036144
8.600000E-6	1.041815
8.800000E-6	1.044144
9.000000E-6	1.052739
9.200000E-6	1.048433
9.400000E-6	1.043216
9.600000E-6	1.045929
9.800000E-6	1.035023
1.000000E-5	1.038489
1.020000E-5	1.045649
1.040000E-5	1.042498
1.060000E-5	1.028301
1.080000E-5	1.047137
1.100000E-5	1.042761
1.120000E-5	1.033833
1.140000E-5	1.032660
1.160000E-5	1.043899
1.180000E-5	1.027723
1.200000E-5	1.037106
1.220000E-5	1.036914
1.240000E-5	1.040993
1.260000E-5	1.041308
1.280000E-5	1.029789
1.320000E-5	1.037106
1.360000E-5	1.050743
1.400000E-5	1.035470
1.440000E-5	1.038708
1.480000E-5	1.038831
1.520000E-5	1.037570
1.560000E-5	1.027548
1.600000E-5	1.033885
1.640000E-5	1.041325
1.680000E-5	1.029868
1.720000E-5	1.030498
1.760000E-5	1.029369
1.800000E-5	1.030349
1.840000E-5	1.032992
1.880000E-5	1.028056
1.920000E-5	1.038279
1.960000E-5	1.036240
2.000000E-5	1.040459
2.040000E-5	1.037264
2.080000E-5	1.027487
2.120000E-5	1.027907
2.160000E-5	1.032870
2.200000E-5	1.026655
2.240000E-5	1.031960
2.280000E-5	1.031714
2.320000E-5	1.030804
2.360000E-5	1.027145
2.400000E-5	1.022104
2.440000E-5	1.027058
2.480000E-5	1.028310
2.520000E-5	1.023697
2.560000E-5	1.028826
2.640000E-5	1.029434
2.720000E-5	1.026423
2.800000E-5	1.021714
2.880000E-5	1.022182
2.960000E-5	1.025539
3.040000E-5	1.016502
3.120000E-5	1.020559
3.200000E-5	1.021434
3.280000E-5	1.018918
3.360000E-5	1.019058
3.440000E-5	1.023968
3.520000E-5	1.016786
3.600000E-5	1.009486
3.680000E-5	1.015167
3.760000E-5	1.013591
3.840000E-5	1.015968
3.920000E-5	1.009714
4.000000E-5	1.012979
4.080000E-5	1.019285
4.160000E-5	1.015618
4.240000E-5	1.006812
4.320000E-5	1.010226
4.400000E-5	1.008712
4.480000E-5	1.010252
4.560000E-5	1.008558
4.640000E-5	1.004830
4.720000E-5	1.002808
4.800000E-5	1.008817
4.880000E-5	1.005517
4.960000E-5	1.005307
5.040000E-5	1.004716
5.120000E-5	1.000689
5.280000E-5	0.999781
5.440000E-5	0.999858
5.600000E-5	0.999001
5.760000E-5	0.996352
5.920000E-5	0.991705
6.080000E-5	0.994474
6.240000E-5	0.991494
6.400000E-5	0.990730
6.560000E-5	0.992696
6.720000E-5	0.988013
6.880000E-5	0.982948
7.040000E-5	0.989817
7.200000E-5	0.987247
7.360000E-5	0.980157
7.520000E-5	0.980944
7.680000E-5	0.979056
7.840000E-5	0.975897
8.000000E-5	0.976597
8.160000E-5	0.972911
8.320000E-5	0.973007
8.480000E-5	0.973797
8.640000E-5	0.968712
8.800000E-5	0.970930
8.960000E-5	0.965187
9.120000E-5	0.967001
9.280000E-5	0.967552
9.440000E-5	0.961735
9.600000E-5	0.960375
9.760000E-5	0.957450
9.920000E-5	0.958424
0.000101	0.957647
0.000102	0.958352
0.000106	0.951800
0.000109	0.949654
0.000112	0.948645
0.000115	0.946338
0.000118	0.943996
0.000122	0.942416
0.000125	0.936445
0.000128	0.933285
0.000131	0.932375
0.000134	0.927369
0.000138	0.925304
0.000141	0.923516
0.000144	0.921483
0.000147	0.918380
0.000150	0.913826
0.000154	0.912289
0.000157	0.911839
0.000160	0.909282
0.000163	0.903038
0.000166	0.907783
0.000170	0.898186
0.000173	0.898354
0.000176	0.896176
0.000179	0.892328
0.000182	0.892767
0.000186	0.886507
0.000189	0.885889
0.000192	0.879956
0.000195	0.875990
0.000198	0.878268
0.000202	0.873023
0.000205	0.869973
0.000211	0.867049
0.000218	0.860867
0.000224	0.859010
0.000230	0.850854
0.000237	0.849041
0.000243	0.841187
0.000250	0.838237
0.000256	0.832020
0.000262	0.828285
0.000269	0.825731
0.000275	0.819403
0.000282	0.815516
0.000288	0.811917
0.000294	0.806828
0.000301	0.800338
0.000307	0.796290
0.000314	0.791524
0.000320	0.788779
0.000326	0.783041
0.000333	0.779188
0.000339	0.773281
0.000346	0.771194
0.000352	0.766495
0.000358	0.763118
0.000365	0.758509
0.000371	0.754957
0.000378	0.748319
0.000384	0.746063
0.000390	0.740980
0.000397	0.737363
0.000403	0.735187
0.000410	0.728790
0.000422	0.720869
0.000435	0.714068
0.000448	0.706766
0.000461	0.698714
0.000474	0.690644
0.000486	0.683453
0.000499	0.675810
0.000512	0.668102
0.000525	0.661743
0.000538	0.654775
0.000550	0.646487
0.000563	0.640674
0.000576	0.632657
0.000589	0.626027
0.000602	0.618845
0.000614	0.611585
0.000627	0.605473
0.000640	0.599063
0.000653	0.594158
0.000666	0.586651
0.000678	0.579379
0.000691	0.574577
0.000704	0.568075
0.000717	0.563500
0.000730	0.557090
0.000742	0.550828
0.000755	0.545834
0.000768	0.540628
0.000781	0.534500
0.000794	0.528166
0.000806	0.524534
0.000819	0.518923
0.000845	0.507986
0.000870	0.498709
0.000896	0.488760
0.000922	0.478690
0.000947	0.468872
0.000973	0.460471
0.000998	0.451964
0.001024	0.443850
0.001050	0.435122
0.001075	0.426446
0.001101	0.419591
0.001126	0.411292
0.001152	0.405398
0.001178	0.396313
0.001203	0.390476
0.001229	0.384833
0.001254	0.379204
0.001280	0.372731
0.001306	0.364852
0.001331	0.360020
0.001357	0.353762
0.001382	0.348654
0.001408	0.342492
0.001434	0.338172
0.001459	0.331667
0.001485	0.327734
0.001510	0.321244
0.001536	0.318394
0.001562	0.313856
0.001587	0.309049
0.001613	0.304894
0.001638	0.300851
0.001690	0.292309
0.001741	0.284467
0.001792	0.276550
0.001843	0.268920
0.001894	0.262861
0.001946	0.256662
0.001997	0.250502
0.002048	0.244460
0.002099	0.239420
0.002150	0.234443
0.002202	0.229664
0.002253	0.225107
0.002304	0.220538
0.002355	0.216182
0.002406	0.212786
0.002458	0.208952
0.002509	0.205758
0.002560	0.202868
0.002611	0.199529
0.002662	0.196542
0.002714	0.193229
0.002765	0.190924
0.002816	0.189168
0.002867	0.187132
0.002918	0.184854
0.002970	0.182407
0.003021	0.181747
0.003072	0.180209
0.003123	0.178937
0.003174	0.177754
0.003226	0.176819
0.003277	0.176347
0.003379	0.174508
0.003482	0.172679
0.003584	0.170291
0.003686	0.167399
0.003789	0.165794
0.003891	0.163499
0.003994	0.161913
0.004096	0.160937
0.004198	0.159677
0.004301	0.158787
0.004403	0.157857
0.004506	0.157219
0.004608	0.155901
0.004710	0.154093
0.004813	0.153960
0.004915	0.152657
0.005018	0.152405
0.005120	0.152688
0.005222	0.152027
0.005325	0.150664
0.005427	0.149388
0.005530	0.147798
0.005632	0.146797
0.005734	0.145574
0.005837	0.144824
0.005939	0.144285
0.006042	0.142355
0.006144	0.140736
0.006246	0.140671
0.006349	0.140422
0.006451	0.140020
0.006554	0.140273
0.006758	0.139814
0.006963	0.139691
0.007168	0.140235
0.007373	0.138927
0.007578	0.136090
0.007782	0.132455
0.007987	0.130152
0.008192	0.129146
0.008397	0.127951
0.008602	0.127679
0.008806	0.126834
0.009011	0.124880
0.009216	0.122473
0.009421	0.120143
0.009626	0.121160
0.009830	0.121755
0.010035	0.121413
0.010240	0.122482
0.010445	0.121120
0.010650	0.120468
0.010854	0.120899
0.011059	0.121532
0.011264	0.122775
0.011469	0.124389
0.011674	0.125256
0.011878	0.125738
0.012083	0.125495
0.012288	0.126116
0.012493	0.126633
0.012698	0.126442
0.012902	0.125090
0.013107	0.123342
0.013517	0.118956
0.013926	0.113729
0.014336	0.111485
0.014746	0.113212
0.015155	0.113680
0.015565	0.112852
0.015974	0.114600
0.016384	0.114011
0.016794	0.108797
0.017203	0.106272
0.017613	0.107614
0.018022	0.109899
0.018432	0.109502
0.018842	0.109067
0.019251	0.105865
0.019661	0.104382
0.020070	0.103923
0.020480	0.101929
0.020890	0.099769
0.021299	0.100324
0.021709	0.099921
0.022118	0.099060
0.022528	0.097747
0.022938	0.098604
0.023347	0.101406
0.023757	0.100499
0.024166	0.101438
0.024576	0.100382
0.024986	0.100420
0.025395	0.098050
0.025805	0.095285
0.026214	0.094244
0.027034	0.091774
0.027853	0.092745
0.028672	0.092527
0.029491	0.089502
0.030310	0.085004
0.031130	0.085168
0.031949	0.080574
0.032768	0.078390
0.033587	0.075079
0.034406	0.075516
0.035226	0.072335
0.036045	0.080660
0.036864	0.083674
0.037683	0.078310
0.038502	0.066824
0.039322	0.063944
0.040141	0.070284
0.040960	0.079542
0.041779	0.082654
0.042598	0.077620
0.043418	0.075951
0.044237	0.077386
0.045056	0.074324
0.045875	0.072295
0.046694	0.064570
0.047514	0.058036
0.048333	0.055546
0.049152	0.060117
0.049971	0.059250
0.050790	0.058125
0.051610	0.056588
0.052429	0.056381
0.054067	0.053841
0.055706	0.050429
0.057344	0.050278
0.058982	0.046891
0.060621	0.045715
0.062259	0.043801
0.063898	0.034113
0.065536	0.029777
0.067174	0.027691
0.068813	0.033394
0.070451	0.035839
0.072090	0.034196
0.073728	0.032723
0.075366	0.029615
0.077005	0.028850
0.078643	0.033912
0.080282	0.026399
0.081920	0.018119
0.083558	0.025715
0.085197	0.024697
0.086835	0.034157
0.088474	0.031045
0.090112	0.033119
0.091750	0.029453
0.093389	0.023602
0.095027	0.009715
0.096666	0.007534
0.098304	0.013264
0.099942	0.022012
0.101581	0.024537
0.103219	0.029689
0.104858	0.035149
0.108134	0.039955
0.111411	0.036437
0.114688	0.039683
0.117965	0.039507
0.121242	0.034452
0.124518	0.044742
0.127795	0.048264
0.131072	0.049982
0.134349	0.053072
0.137626	0.036425
0.140902	0.042123
0.144179	0.049244
0.147456	0.044843
0.150733	0.042887
0.154010	0.054376
0.157286	0.056977
0.160563	0.060279
0.163840	0.066700
0.167117	0.055720
0.170394	0.064659
0.173670	0.053526
0.176947	0.060702
0.180224	0.062644
0.183501	0.059508
0.186778	0.046123
0.190054	0.051773
0.193331	0.050767
0.196608	0.045615
0.199885	0.044859
0.203162	0.039302
0.206438	0.034213
0.209715	0.031078
0.216269	0.024375
0.222822	0.017660
0.229376	0.011952
0.235930	0.012308
0.242483	0.016854
0.249037	0.024544
0.255590	0.029397
0.262144	0.031415
0.268698	0.027572
0.275251	0.035146
0.281805	0.044777
0.288358	0.054567
0.294912	0.052245
0.301466	0.056927
0.308019	0.043144
0.314573	0.041241
0.321126	0.036149
0.327680	0.026619
0.334234	0.023179
0.340787	0.028908
0.347341	0.018306
0.353894	0.019232
0.360448	0.024080
0.367002	0.012782
0.373555	0.015130
0.380109	0.008199
0.386662	-0.001741
0.393216	-0.007089
0.399770	-0.003150
0.406323	-0.000733
0.412877	-0.007992
0.419430	-0.001710
0.432538	-0.002719
0.445645	-0.004378
0.458752	0.002851
0.471859	0.003162
0.484966	0.002761
0.498074	-0.002114
0.511181	-0.005536
0.524288	-0.002412
0.537395	-0.002108
0.550502	0.004001
0.563610	-0.002704
0.576717	0.005705
0.589824	-0.003394
0.602931	-0.003697
0.616038	-0.001544
0.629146	-0.007274
0.642253	-0.009068
0.655360	-0.003273
0.668467	-0.003725
0.681574	-0.009438
0.694682	-0.010994
0.707789	-0.014035
0.720896	-0.005888
0.734003	-0.007469
0.747110	-0.006222
0.760218	-0.008340
0.773325	-0.002342
0.786432	-0.003307
0.799539	-0.013145
0.812646	-0.005764
0.825754	-0.002716
0.838861	-0.007810
0.865075	-0.010200
0.891290	-0.007655
0.917504	-0.004875
0.943718	-0.003981
0.969933	-0.004078
0.996147	-0.009733
1.022362	-0.010822
1.048576	0.001004
1.074790	-0.006085
1.101005	-0.005694
1.127219	-0.006357
1.153434	-0.004911
1.179648	-0.001503
1.205862	-0.005334
1.232077	-0.000182
1.258291	0.006198
1.284506	-0.003415
1.310720	-0.003555
1.336934	-0.001023
1.363149	-0.000761
1.389363	0.000460
1.415578	-0.000643
1.441792	-0.000941
1.468006	-0.004643
1.494221	-0.006268
1.520435	-0.001973
1.546650	-0.006173
1.572864	-0.005118
1.599078	-0.006007
1.625293	0.000702
1.651507	0.007279
1.677722	-0.004737
1.730150	-0.000865
1.782579	0.005065
1.835008	0.001748
1.887437	-0.003798
1.939866	4.344171E-5
1.992294	-0.004362
2.044723	-0.002486
2.097152	-0.003526
2.149581	-0.006436
2.202010	-0.007521
2.254438	-0.009450
2.306867	-0.011061
2.359296	-0.008784
2.411725	-0.007986
2.464154	-0.003932
2.516582	-0.007269
2.569011	-0.008173
2.621440	-0.005627
2.673869	-0.008867
2.726298	-0.010243
2.778726	-0.008888
2.831155	-0.003779
2.883584	-0.006816
2.936013	-0.003426
2.988442	-0.003196
3.040870	-0.004788
3.093299	-0.010228
3.145728	-0.010177
3.198157	-0.002490
3.250586	0.006109
3.303015	0.002422
3.355443	-0.004609
3.460301	-0.001502
3.565158	-0.003443
3.670016	0.003124
3.774873	0.004858
3.879731	0.006412
3.984589	0.012280
4.089447	-0.002724
4.194304	0.008710
4.299161	0.004497
4.404019	-0.010672
4.508877	-0.004469
4.613734	0.006511
4.718592	-0.004641
4.823450	-0.002715
4.928307	4.119207E-5
5.033165	-0.011967
5.138022	-0.013564
5.242880	-0.011040
5.347738	-0.011753
5.452595	-0.013414
5.557453	-0.006912
5.662311	-0.007938
5.767168	-0.006702
5.872025	-6.045498E-5
5.976883	-0.001675
6.081741	0.001227
6.186598	0.007622
6.291456	-0.001306
6.396314	0.002222
6.501171	-0.002919
6.606029	-0.007866
6.710886	0.004086
6.920601	-0.006797
7.130317	-0.003226
7.340032	-0.001850
7.549747	-0.004521
7.759462	-0.006164
7.969178	0.001855
8.178893	0.011352
8.388608	0.007314
8.598323	-0.005739
8.808039	-0.008701
9.017754	-0.007047
9.227468	-0.002892
9.437184	2.795899E-6
9.646899	-0.008426
9.856614	-0.008277
10.066330	0.007142
10.276045	0.005839
10.485760	0.006650
10.695476	0.007100
10.905190	-0.001676
11.114905	-0.004521
11.324621	-0.000407
11.534336	-0.000979
11.744051	-8.241458E-5
11.953767	0.000655
12.163482	0.003910
12.373197	0.002375
12.582912	-0.000965
12.792627	-0.002351
13.002342	0.001286
13.212058	0.000335
13.421773	-0.004028
13.841203	-0.000499
14.260633	0.001072
14.680064	0.003520
15.099494	-0.000264
15.518925	0.001829
15.938355	-0.000958
16.357786	0.001928
16.777216	-0.002232
17.196646	-0.002895
17.616077	-0.002810
18.035507	-0.001263
18.454937	0.001499
18.874369	-0.000292
19.293798	0.000000
19.713228	NaN
20.132660	NaN
20.552090	NaN
20.971519	NaN
21.390951	NaN
21.810381	NaN
22.229811	NaN
22.649242	NaN
23.068672	NaN
23.488102	NaN
23.907534	NaN
24.326963	NaN
24.746393	NaN
25.165825	NaN
25.585255	NaN
26.004684	NaN
26.424116	NaN
26.843546	NaN
27.682405	NaN
28.521267	NaN
29.360128	NaN
30.198988	NaN
31.037849	NaN
31.876711	NaN
32.715572	NaN
33.554432	NaN
34.393291	NaN
35.232155	NaN
36.071014	NaN
36.909874	NaN
37.748737	NaN
38.587597	NaN
39.426456	NaN
40.265320	NaN
41.104179	NaN
41.943039	NaN
42.781902	NaN
43.620762	NaN
44.459621	NaN
45.298485	NaN
46.137344	NaN
46.976204	NaN
47.815067	NaN
48.653927	NaN
49.492786	NaN
50.331650	NaN
51.170509	NaN
52.009369	NaN
52.848232	NaN
53.687092	NaN
55.364811	NaN
57.042534	NaN
58.720257	NaN
60.397976	NaN
62.075699	NaN
63.753422	NaN
65.431145	NaN
67.108864	NaN
68.786583	NaN
70.464310	NaN
72.142029	NaN
73.819748	NaN
75.497475	NaN
77.175194	NaN
78.852913	NaN
80.530640	NaN
82.208359	NaN
83.886078	NaN
85.563805	NaN
87.241524	NaN
88.919243	NaN
90.596970	NaN
92.274689	NaN
93.952408	NaN
95.630135	NaN
97.307854	NaN
98.985573	NaN
100.663300	NaN
102.341019	NaN
104.018738	NaN
105.696465	NaN
107.374184	NaN
110.729622	NaN
114.085068	NaN
117.440514	NaN
120.795952	NaN
124.151398	NaN
127.506844	NaN
130.862289	NaN
134.217728	NaN
137.573166	NaN
140.928619	NaN
144.284058	NaN
147.639496	NaN
150.994949	NaN
154.350388	NaN
157.705826	NaN
161.061279	NaN
164.416718	NaN
167.772156	NaN
171.127609	NaN
174.483047	NaN
177.838486	NaN
181.193939	NaN
184.549377	NaN
187.904816	NaN
191.260269	NaN
194.615707	NaN
197.971146	NaN
201.326599	NaN
204.682037	NaN
208.037476	NaN
211.392929	NaN
214.748367	NaN
221.459244	NaN
228.170135	NaN
234.881027	NaN
241.591904	NaN
248.302795	NaN
255.013687	NaN
261.724579	NaN
268.435455	NaN
275.146332	NaN
281.857239	NaN
288.568115	NaN
295.278992	NaN
301.989899	NaN
308.700775	NaN
315.411652	NaN
322.122559	NaN
328.833435	NaN
335.544312	NaN
342.255219	NaN
348.966095	NaN
355.676971	NaN
362.387878	NaN
369.098755	NaN
375.809631	NaN
382.520538	NaN
389.231415	NaN
395.942291	NaN
402.653198	NaN
409.364075	NaN
416.074951	NaN
422.785858	NaN
429.496735	NaN
442.918488	NaN
456.340271	NaN
469.762054	NaN
483.183807	NaN
496.605591	NaN
510.027374	NaN
523.449158	NaN
536.870911	NaN
550.292664	NaN
563.714478	NaN
577.136230	NaN
590.557983	NaN
603.979797	NaN
617.401550	NaN
630.823303	NaN
644.245117	NaN
657.666870	NaN
671.088623	NaN
684.510437	NaN
697.932190	NaN
711.353943	NaN
724.775757	NaN
738.197510	NaN
751.619263	NaN
765.041077	NaN
778.462830	NaN
791.884583	NaN
805.306396	NaN
818.728149	NaN
832.149902	NaN
845.571716	NaN
858.993469	NaN
885.836975	NaN
912.680542	NaN
939.524109	NaN
966.367615	NaN
993.211182	NaN
1020.054749	NaN
1046.898315	NaN
1073.741821	NaN
1100.585327	NaN
1127.428955	NaN
1154.272461	NaN
1181.115967	NaN
1207.959595	NaN
1234.803101	NaN
1261.646606	NaN
1288.490234	NaN
1315.333740	NaN
1342.177246	NaN
1369.020874	NaN
1395.864380	NaN
1422.707886	NaN
1449.551514	NaN
1476.395020	NaN
1503.238525	NaN
1530.082153	NaN
1556.925659	NaN
1583.769165	NaN
1610.612793	NaN
1637.456299	NaN
1664.299805	NaN
1691.143433	NaN
1717.986938	NaN
1771.673950	NaN
1825.361084	NaN
1879.048218	NaN
1932.735229	NaN
1986.422363	NaN
2040.109497	NaN
2093.796631	NaN
2147.483643	NaN
2201.170654	NaN
2254.857910	NaN
2308.544922	NaN
2362.231934	NaN
2415.919189	NaN
2469.606201	NaN
2523.293213	NaN
2576.980469	NaN
2630.667480	NaN
2684.354492	NaN
2738.041748	NaN
2791.728760	NaN
2845.415771	NaN
2899.103027	NaN
2952.790039	NaN
3006.477051	NaN
3060.164307	NaN
3113.851318	NaN
3167.538330	NaN
3221.225586	NaN
3274.912598	NaN
3328.599609	NaN
3382.286865	NaN
3435.973877	NaN
0.000000	NaN
0.000000	NaN
0.000000	NaN
0.000000	NaN
0.000000	NaN
0.000000	NaN
0.000000	NaN
0.000000	NaN
0.000000	NaN
0.000000	NaN
0.000000	NaN
0.000000	NaN
0.000000	NaN
0.000000	NaN
0.000000	NaN
0.000000	NaN
0.000000	NaN
0.000000	NaN
0.000000	NaN
0.000000	NaN
0.000000	NaN
0.000000	NaN
0.000000	NaN
0.000000	NaN
0.000000	NaN
0.000000	NaN
0.000000	NaN
0.000000	NaN
0.000000	NaN
0.000000	NaN
0.000000	NaN
0.000000	NaN

Count Rate History (KHz)  CR CHA / CR CHB
0.000000	97.408295	100.650787
0.104858	111.122131	116.004944
0.209715	123.586655	121.860504
0.314573	126.419067	131.292343
0.419430	160.636902	166.788101
0.524288	108.556747	111.780167
0.629146	122.470856	121.812820
0.734003	97.923279	98.943710
0.838861	153.894424	155.086517
0.943718	123.510361	127.668381
1.048576	102.281570	104.522705
1.153434	100.097656	98.724365
1.258291	88.443756	87.509155
1.363149	111.360550	112.619400
1.468006	115.976334	123.214722
1.572864	110.607147	112.247467
1.677722	104.770660	105.819702
1.782579	121.431351	132.446289
1.887437	107.517242	107.679367
1.992294	110.368729	111.398697
2.097152	115.365982	121.545792
2.202010	90.208054	89.759827
2.306867	92.325211	92.983246
2.411725	101.928711	101.613998
2.516582	121.955872	118.980408
2.621440	128.383636	132.083893
2.726298	123.348236	128.154755
2.831155	113.229752	118.522644
2.936013	115.671158	116.052628
3.040870	110.683441	108.041763
3.145728	85.611343	86.002350
3.250586	146.398544	149.755478
3.355443	107.927322	111.446381
3.460301	116.806030	121.679306
3.565158	121.126175	117.464066
3.670016	126.724243	136.785507
3.774874	119.237900	116.100311
3.879731	109.262466	117.845535
3.984589	97.541809	94.661713
4.089446	125.818253	129.356384
4.194304	166.521072	167.903900
4.299162	100.641251	106.029510
4.404019	93.879700	93.450546
4.508877	112.018585	114.412308
4.613734	125.045776	127.344131
4.718592	117.979050	124.464035
4.823450	126.714706	126.914978
4.928307	138.578415	145.902634
5.033165	149.745941	146.608353
5.138022	116.834641	118.541718
5.242880	109.252930	107.669830
5.347738	117.626190	119.791031
5.452595	108.280182	109.376907
5.557453	103.406906	105.381012
5.662310	94.385147	93.450546
5.767168	97.179413	103.244781
5.872026	103.111267	105.199814
5.976883	108.890533	110.044479
6.081741	114.860535	116.243362
6.186598	113.363266	116.558075
6.291456	141.820908	151.739120
6.396314	112.142563	104.188919
6.501171	88.157654	87.413788
6.606029	116.529465	120.887756
6.710886	120.401382	121.803284
6.815744	107.440948	104.904175
6.920602	149.450302	155.515671
7.025459	166.902542	168.733597
7.130317	132.846832	139.980316
7.235174	130.844116	127.201080
7.340032	93.851089	99.077225
7.444890	121.402740	117.845535
7.549747	124.616623	126.333237
7.654605	123.023987	137.987137
7.759462	106.296539	100.345612
7.864320	128.746033	128.183365
7.969178	110.425949	113.410950
8.074035	87.785721	88.376999
8.178893	102.281570	100.822449
8.283750	110.177994	110.826492
8.388608	103.406906	108.175278
8.493466	94.881058	91.495514
8.598323	78.363419	85.058212
8.703181	105.705261	106.124878
8.808038	100.173950	95.176697
8.912896	116.786957	118.398666
9.017754	122.509003	125.465393
9.122611	128.793716	131.244659
9.227469	116.462708	120.840073
9.332326	102.119446	101.280212
9.437184	105.333328	119.762421
9.542042	139.150620	129.747391
9.646899	123.386383	126.848221
9.751757	108.575821	118.141174
9.856614	132.007599	123.844147
9.961472	108.079910	109.319687
10.066330	92.706680	94.079971
10.171187	91.524124	96.359253
10.276045	113.401413	107.908249
10.380902	125.980377	131.626129
10.485760	94.318390	91.686249
10.590618	138.702393	144.872665
10.695475	178.909302	183.115005
10.800333	134.954453	146.245956
10.905190	560.312271	587.587357
11.010048	177.049637	193.071365
11.114906	249.423981	248.708725
11.219763	319.452286	329.952240
11.324621	100.088120	100.584030
11.429478	106.487274	108.308792
11.534336	101.213455	105.199814
11.639194	114.870071	115.051270
11.744051	99.306107	96.817017
11.848909	107.765198	111.856461
11.953766	111.284256	111.856461
12.058624	97.312927	99.191666
12.163482	129.146576	131.301880
12.268339	119.762421	123.462677
12.373197	100.755692	100.736618
12.478054	99.296570	102.281570
12.582912	107.097626	112.028122
12.687770	144.138336	150.794983
12.792627	116.548538	120.067596
12.897485	101.490021	96.282959
13.002342	112.695694	115.871429
13.107200	107.946396	105.504990
13.212058	101.976395	106.782913
13.316915	114.154816	114.774704
13.421773	120.391846	122.032166
13.526630	125.255585	131.759644
13.631488	109.481812	110.406876
13.736346	115.385056	116.605759
13.841203	106.811523	111.446381
13.946061	102.605820	102.930069
14.050918	116.109848	115.995407
14.155776	120.429993	127.706528
14.260634	107.822418	104.255676
14.365491	109.052658	108.919144
14.470349	113.849640	116.825104
14.575206	110.282898	110.826492
14.680064	125.799179	126.304626
14.784922	100.393295	107.851028
14.889779	122.957230	118.837357
14.994637	100.326538	101.852417
15.099494	128.726959	143.890381
15.204352	133.476257	121.927261
15.309210	93.889236	91.733932
15.414067	100.975037	104.846954
15.518925	112.934113	119.686127
15.623782	129.022598	128.898621
15.728640	123.853683	123.300552
15.833498	124.197006	126.857758
15.938355	93.870163	97.160339
16.043213	103.492737	105.867386
16.148070	120.916367	120.296478
16.252928	111.360550	107.622147
16.357786	88.319778	93.603134
16.462643	124.139786	126.256943
16.567501	112.667084	114.116669
16.672358	103.073120	99.468231
16.777216	95.643997	97.055435
16.882074	100.450516	102.186203
16.986931	103.855133	102.481842
17.091789	118.703842	120.496750
17.196646	99.182129	98.190308
17.301504	127.983093	134.391785
17.406362	126.676559	126.047134
17.511219	105.934143	111.722946
17.616077	108.032227	108.480453
17.720934	104.856491	106.325150
17.825792	86.507797	85.563660
17.930650	109.262466	109.500885
18.035507	92.916489	94.308853
18.140365	143.051147	151.472092
18.245222	100.460052	97.894669
18.350080	126.676559	128.898621
18.454938	121.469498	118.923187
18.559795	104.951859	108.528137
18.664653	96.416473	98.714828
18.769510	110.979080	116.052628
18.874368	105.094910	117.673874
18.979226	121.374130	119.132996
19.084083	147.142410	149.364471
19.188941	129.737854	134.716034
19.293798	136.346817	138.044357
19.398656	143.861771	149.297714
19.503514	121.116638	127.372742
19.608371	95.529556	93.536377
19.713229	121.116638	125.722885
19.818086	109.691620	108.280182
