1/9/2026	9:00 AM
Pseudo Cross Correlation
Scattering angle:	130.0
Duration (s):	20
Wavelength (nm):	632.8
Refractive index:	1.330
Viscosity (mPas):	0.882
Temperature (K):	298.6
Laser intensity (mW):	8.501546
Average Count rate  A (kHz):	103.7
Average Count rate  B (kHz):	104.7
Intercept:	0.6218
Cumulant 1st	193.33
Cumulant 2nd	169.18	59.03
Cumulant 3rd	165.56	68.60

Lag time (s)         g2-1
1.250000E-8	0.617929
2.500000E-8	0.582974
3.750000E-8	0.599708
5.000000E-8	0.633918
6.250000E-8	0.636521
7.500000E-8	0.611607
8.750000E-8	0.636149
1.000000E-7	0.625737
1.125000E-7	0.640983
1.250000E-7	0.604170
1.375000E-7	0.662923
1.500000E-7	0.652511
1.625000E-7	0.616813
1.750000E-7	0.606401
1.875000E-7	0.609376
2.000000E-7	0.585949
2.125000E-7	0.611979
2.250000E-7	0.661807
2.375000E-7	0.602311
2.500000E-7	0.653626
2.625000E-7	0.628340
2.750000E-7	0.647305
2.875000E-7	0.640240
3.000000E-7	0.607145
3.125000E-7	0.651395
3.250000E-7	0.650280
3.375000E-7	0.581115
3.500000E-7	0.641727
3.625000E-7	0.606401
3.750000E-7	0.623878
3.875000E-7	0.601195
4.000000E-7	0.624994
4.125000E-7	0.633174
4.250000E-7	0.660320
4.375000E-7	0.605657
4.500000E-7	0.674078
4.625000E-7	0.627597
4.750000E-7	0.644702
4.875000E-7	0.638752
5.000000E-7	0.610491
5.125000E-7	0.591527
5.250000E-7	0.629084
5.375000E-7	0.606401
5.500000E-7	0.601195
5.625000E-7	0.613466
5.750000E-7	0.615697
5.875000E-7	0.613838
6.000000E-7	0.604542
6.125000E-7	0.593386
6.250000E-7	0.595617
6.375000E-7	0.612723
6.500000E-7	0.613838
6.625000E-7	0.584834
6.750000E-7	0.659948
6.875000E-7	0.626481
7.000000E-7	0.640240
7.125000E-7	0.607145
7.250000E-7	0.645446
7.375000E-7	0.623134
7.500000E-7	0.652139
7.625000E-7	0.607517
7.750000E-7	0.584834
7.875000E-7	0.628340
8.000000E-7	0.637265
8.250000E-7	0.659390
8.500000E-7	0.615511
8.750000E-7	0.621647
9.000000E-7	0.631315
9.250000E-7	0.651209
9.500000E-7	0.632803
9.750000E-7	0.621275
1.000000E-6	0.616627
1.025000E-6	0.629084
1.050000E-6	0.635220
1.075000E-6	0.605657
1.100000E-6	0.608260
1.125000E-6	0.620160
1.150000E-6	0.619974
1.175000E-6	0.628526
1.200000E-6	0.628154
1.225000E-6	0.623134
1.250000E-6	0.642099
1.275000E-6	0.616069
1.300000E-6	0.626853
1.325000E-6	0.631501
1.350000E-6	0.634290
1.375000E-6	0.626481
1.400000E-6	0.633174
1.425000E-6	0.608074
1.450000E-6	0.614396
1.475000E-6	0.631129
1.500000E-6	0.631129
1.525000E-6	0.630571
1.550000E-6	0.619602
1.575000E-6	0.628154
1.600000E-6	0.593944
1.650000E-6	0.633639
1.700000E-6	0.611886
1.750000E-6	0.608446
1.800000E-6	0.616627
1.850000E-6	0.626388
1.900000E-6	0.633174
1.950000E-6	0.627132
2.000000E-6	0.631873
2.050000E-6	0.609748
2.100000E-6	0.628991
2.150000E-6	0.618579
2.200000E-6	0.619881
2.250000E-6	0.598964
2.300000E-6	0.607145
2.350000E-6	0.622948
2.400000E-6	0.623785
2.450000E-6	0.619695
2.500000E-6	0.631501
2.550000E-6	0.612723
2.600000E-6	0.632617
2.650000E-6	0.643865
2.700000E-6	0.633453
2.750000E-6	0.614768
2.800000E-6	0.610213
2.850000E-6	0.615511
2.900000E-6	0.620160
2.950000E-6	0.626109
3.000000E-6	0.630479
3.050000E-6	0.615604
3.100000E-6	0.600080
3.150000E-6	0.626574
3.200000E-6	0.615976
3.300000E-6	0.629456
3.400000E-6	0.595013
3.500000E-6	0.632756
3.600000E-6	0.621275
3.700000E-6	0.624250
3.800000E-6	0.621043
3.900000E-6	0.623134
4.000000E-6	0.629921
4.100000E-6	0.624529
4.200000E-6	0.602915
4.300000E-6	0.618905
4.400000E-6	0.600498
4.500000E-6	0.630897
4.600000E-6	0.632477
4.700000E-6	0.605100
4.800000E-6	0.622391
4.900000E-6	0.613745
5.000000E-6	0.628619
5.100000E-6	0.616627
5.200000E-6	0.624436
5.300000E-6	0.616673
5.400000E-6	0.622809
5.500000E-6	0.627411
5.600000E-6	0.619416
5.700000E-6	0.620299
5.800000E-6	0.632431
5.900000E-6	0.627039
6.000000E-6	0.624436
6.100000E-6	0.624808
6.200000E-6	0.607749
6.300000E-6	0.613792
6.400000E-6	0.619090
6.600000E-6	0.614861
6.800000E-6	0.615186
7.000000E-6	0.615674
7.200000E-6	0.616883
7.400000E-6	0.615349
7.600000E-6	0.614884
7.800000E-6	0.622553
8.000000E-6	0.608748
8.200000E-6	0.612049
8.400000E-6	0.621391
8.600000E-6	0.614373
8.800000E-6	0.604797
9.000000E-6	0.606471
9.200000E-6	0.608353
9.400000E-6	0.601892
9.600000E-6	0.620973
9.800000E-6	0.616534
1.000000E-5	0.602590
1.020000E-5	0.602032
1.040000E-5	0.621229
1.060000E-5	0.605193
1.080000E-5	0.611654
1.100000E-5	0.605959
1.120000E-5	0.608679
1.140000E-5	0.607540
1.160000E-5	0.612513
1.180000E-5	0.614628
1.200000E-5	0.608702
1.220000E-5	0.600521
1.240000E-5	0.611444
1.260000E-5	0.598174
1.280000E-5	0.610143
1.320000E-5	0.602915
1.360000E-5	0.600358
1.400000E-5	0.604240
1.440000E-5	0.603682
1.480000E-5	0.601404
1.520000E-5	0.605901
1.560000E-5	0.609202
1.600000E-5	0.601788
1.640000E-5	0.598848
1.680000E-5	0.606808
1.720000E-5	0.596733
1.760000E-5	0.599022
1.800000E-5	0.599208
1.840000E-5	0.593851
1.880000E-5	0.605030
1.920000E-5	0.597674
1.960000E-5	0.601346
2.000000E-5	0.594630
2.040000E-5	0.599034
2.080000E-5	0.603461
2.120000E-5	0.601253
2.160000E-5	0.596187
2.200000E-5	0.599626
2.240000E-5	0.604797
2.280000E-5	0.602659
2.320000E-5	0.597279
2.360000E-5	0.600544
2.400000E-5	0.602950
2.440000E-5	0.586402
2.480000E-5	0.598453
2.520000E-5	0.591736
2.560000E-5	0.599045
2.640000E-5	0.590661
2.720000E-5	0.591829
2.800000E-5	0.590057
2.880000E-5	0.595094
2.960000E-5	0.594757
3.040000E-5	0.590034
3.120000E-5	0.587692
3.200000E-5	0.590586
3.280000E-5	0.586071
3.360000E-5	0.580418
3.440000E-5	0.585885
3.520000E-5	0.584537
3.600000E-5	0.586600
3.680000E-5	0.585293
3.760000E-5	0.583300
3.840000E-5	0.585147
3.920000E-5	0.575967
4.000000E-5	0.577856
4.080000E-5	0.582202
4.160000E-5	0.575898
4.240000E-5	0.579436
4.320000E-5	0.580046
4.400000E-5	0.574776
4.480000E-5	0.575258
4.560000E-5	0.564707
4.640000E-5	0.568943
4.720000E-5	0.569971
4.800000E-5	0.566264
4.880000E-5	0.568112
4.960000E-5	0.569007
5.040000E-5	0.571290
5.120000E-5	0.565149
5.280000E-5	0.566228
5.440000E-5	0.561716
5.600000E-5	0.561106
5.760000E-5	0.562177
5.920000E-5	0.560629
6.080000E-5	0.559214
6.240000E-5	0.554568
6.400000E-5	0.559307
6.560000E-5	0.553092
6.720000E-5	0.551854
6.880000E-5	0.555378
7.040000E-5	0.553711
7.200000E-5	0.546566
7.360000E-5	0.547615
7.520000E-5	0.543259
7.680000E-5	0.543498
7.840000E-5	0.544040
8.000000E-5	0.540492
8.160000E-5	0.537520
8.320000E-5	0.537502
8.480000E-5	0.538757
8.640000E-5	0.536936
8.800000E-5	0.531125
8.960000E-5	0.531322
9.120000E-5	0.530352
9.280000E-5	0.528390
9.440000E-5	0.526428
9.600000E-5	0.522727
9.760000E-5	0.527137
9.920000E-5	0.525019
0.000101	0.520051
0.000102	0.520675
0.000106	0.514840
0.000109	0.513261
0.000112	0.510695
0.000115	0.507208
0.000118	0.509213
0.000122	0.502416
0.000125	0.500945
0.000128	0.499221
0.000131	0.498209
0.000134	0.494168
0.000138	0.490826
0.000141	0.489173
0.000144	0.484255
0.000147	0.482743
0.000150	0.481087
0.000154	0.474549
0.000157	0.474629
0.000160	0.471229
0.000163	0.470990
0.000166	0.471835
0.000170	0.467111
0.000173	0.463664
0.000176	0.458840
0.000179	0.461458
0.000182	0.454618
0.000186	0.454557
0.000189	0.451178
0.000192	0.447478
0.000195	0.446745
0.000198	0.444870
0.000202	0.442890
0.000205	0.439502
0.000211	0.436192
0.000218	0.431884
0.000224	0.427803
0.000230	0.425613
0.000237	0.418610
0.000243	0.414360
0.000250	0.410886
0.000256	0.406823
0.000262	0.402616
0.000269	0.400645
0.000275	0.393853
0.000282	0.392913
0.000288	0.388521
0.000294	0.383990
0.000301	0.378812
0.000307	0.375984
0.000314	0.370981
0.000320	0.370008
0.000326	0.364016
0.000333	0.361799
0.000339	0.360480
0.000346	0.353017
0.000352	0.350750
0.000358	0.347346
0.000365	0.341981
0.000371	0.342386
0.000378	0.337646
0.000384	0.334089
0.000390	0.330942
0.000397	0.327845
0.000403	0.325299
0.000410	0.319475
0.000422	0.316163
0.000435	0.310361
0.000448	0.303231
0.000461	0.298404
0.000474	0.292813
0.000486	0.286014
0.000499	0.280792
0.000512	0.276865
0.000525	0.269637
0.000538	0.266605
0.000550	0.261738
0.000563	0.256115
0.000576	0.252073
0.000589	0.246602
0.000602	0.242056
0.000614	0.238626
0.000627	0.234155
0.000640	0.229812
0.000653	0.223686
0.000666	0.221569
0.000678	0.216217
0.000691	0.213242
0.000704	0.208416
0.000717	0.205565
0.000730	0.201801
0.000742	0.197687
0.000755	0.193799
0.000768	0.190154
0.000781	0.186365
0.000794	0.183573
0.000806	0.181362
0.000819	0.177081
0.000845	0.171413
0.000870	0.165387
0.000896	0.160273
0.000922	0.153377
0.000947	0.148874
0.000973	0.143192
0.000998	0.138472
0.001024	0.133358
0.001050	0.127857
0.001075	0.125069
0.001101	0.120330
0.001126	0.116864
0.001152	0.112183
0.001178	0.108992
0.001203	0.105380
0.001229	0.100711
0.001254	0.098642
0.001280	0.095228
0.001306	0.092076
0.001331	0.089681
0.001357	0.086399
0.001382	0.084784
0.001408	0.081649
0.001434	0.079305
0.001459	0.076357
0.001485	0.074243
0.001510	0.072710
0.001536	0.071097
0.001562	0.068318
0.001587	0.066118
0.001613	0.064210
0.001638	0.063330
0.001690	0.058564
0.001741	0.056092
0.001792	0.052887
0.001843	0.050632
0.001894	0.048130
0.001946	0.045318
0.001997	0.044250
0.002048	0.041558
0.002099	0.040440
0.002150	0.039594
0.002202	0.037447
0.002253	0.036109
0.002304	0.034640
0.002355	0.033273
0.002406	0.031808
0.002458	0.030008
0.002509	0.029236
0.002560	0.027250
0.002611	0.026314
0.002662	0.026793
0.002714	0.024707
0.002765	0.023368
0.002816	0.022033
0.002867	0.020946
0.002918	0.019846
0.002970	0.018440
0.003021	0.017853
0.003072	0.016631
0.003123	0.015985
0.003174	0.015156
0.003226	0.015348
0.003277	0.013897
0.003379	0.013032
0.003482	0.011859
0.003584	0.011809
0.003686	0.011098
0.003789	0.010249
0.003891	0.008320
0.003994	0.007179
0.004096	0.005623
0.004198	0.005167
0.004301	0.004497
0.004403	0.003950
0.004506	0.004874
0.004608	0.004529
0.004710	0.004276
0.004813	0.004138
0.004915	0.003474
0.005018	0.003372
0.005120	0.002124
0.005222	0.000729
0.005325	0.000264
0.005427	-0.001103
0.005530	-0.001146
0.005632	-0.000424
0.005734	0.000642
0.005837	0.000871
0.005939	0.001086
0.006042	0.001925
0.006144	0.002873
0.006246	0.003084
0.006349	0.003189
0.006451	0.002821
0.006554	0.002189
0.006758	0.001906
0.006963	0.001544
0.007168	-3.077709E-5
0.007373	-0.001162
0.007578	-0.002175
0.007782	-0.004573
0.007987	-0.006141
0.008192	-0.006260
0.008397	-0.005401
0.008602	-0.004284
0.008806	-0.004362
0.009011	-0.005671
0.009216	-0.005369
0.009421	-0.004461
0.009626	-0.003202
0.009830	-0.003267
0.010035	-0.003877
0.010240	-0.002895
0.010445	-0.003259
0.010650	-0.003794
0.010854	-0.003215
0.011059	-0.003975
0.011264	-0.005242
0.011469	-0.005973
0.011674	-0.005568
0.011878	-0.005065
0.012083	-0.004942
0.012288	-0.005115
0.012493	-0.006263
0.012698	-0.007159
0.012902	-0.007769
0.013107	-0.008571
0.013517	-0.007266
0.013926	-0.004032
0.014336	0.000217
0.014746	0.002274
0.015155	0.002032
0.015565	0.003508
0.015974	0.003005
0.016384	0.000871
0.016794	-0.001820
0.017203	-0.001433
0.017613	0.000275
0.018022	0.002646
0.018432	0.003028
0.018842	-0.001223
0.019251	-0.002263
0.019661	-0.001068
0.020070	0.000638
0.020480	0.000357
0.020890	0.000831
0.021299	0.002592
0.021709	0.002949
0.022118	0.003203
0.022528	0.003369
0.022938	0.001700
0.023347	0.000612
0.023757	0.001462
0.024166	0.002903
0.024576	0.000357
0.024986	0.000444
0.025395	-0.001201
0.025805	-0.000796
0.026214	0.000921
0.027034	-0.001045
0.027853	-0.006286
0.028672	-0.004444
0.029491	-0.002864
0.030310	0.000956
0.031130	0.004926
0.031949	0.006836
0.032768	0.003673
0.033587	0.003832
0.034406	0.003889
0.035226	0.004219
0.036045	0.004102
0.036864	0.002494
0.037683	0.006057
0.038502	0.010057
0.039322	0.010787
0.040141	0.011693
0.040960	0.011302
0.041779	0.006862
0.042598	0.005592
0.043418	0.001492
0.044237	0.000843
0.045056	-0.000337
0.045875	-0.001269
0.046694	-3.102027E-5
0.047514	0.002613
0.048333	0.005664
0.049152	0.000421
0.049971	-0.001601
0.050790	0.001881
0.051610	0.004355
0.052429	0.000860
0.054067	-1.744738E-5
0.055706	0.001155
0.057344	-0.000772
0.058982	-0.000719
0.060621	-0.000437
0.062259	-0.002756
0.063898	-0.002731
0.065536	0.000709
0.067174	0.003027
0.068813	-0.001588
0.070451	-0.001820
0.072090	0.003954
0.073728	0.002245
0.075366	0.001360
0.077005	0.001612
0.078643	-3.347975E-5
0.080282	0.002090
0.081920	0.001893
0.083558	0.000461
0.085197	0.001545
0.086835	0.003576
0.088474	0.007278
0.090112	0.002758
0.091750	-0.000934
0.093389	-0.001732
0.095027	0.000416
0.096666	0.001702
0.098304	0.004659
0.099942	-0.002368
0.101581	-0.001553
0.103219	-0.001824
0.104858	0.001318
0.108134	0.003374
0.111411	0.002658
0.114688	0.001905
0.117965	-0.002370
0.121242	0.002002
0.124518	-1.962557E-5
0.127795	-0.003224
0.131072	-0.000582
0.134349	0.000929
0.137626	0.003739
0.140902	0.000793
0.144179	0.001752
0.147456	-0.000233
0.150733	0.001674
0.154010	0.001835
0.157286	-0.001781
0.160563	-0.002346
0.163840	-1.288036E-5
0.167117	0.000827
0.170394	0.001987
0.173670	0.002858
0.176947	-0.002210
0.180224	-0.000989
0.183501	-0.000499
0.186778	0.006088
0.190054	0.004220
0.193331	0.000682
0.196608	-0.001122
0.199885	-0.001571
0.203162	-0.001160
0.206438	0.001181
0.209715	0.000714
0.216269	-0.001053
0.222822	-0.001732
0.229376	-0.001803
0.235930	0.000249
0.242483	0.001293
0.249037	0.001665
0.255590	0.001451
0.262144	-0.000837
0.268698	-0.001382
0.275251	-0.002447
0.281805	0.003127
0.288358	0.000808
0.294912	0.000718
0.301466	-0.001114
0.308019	0.003494
0.314573	-0.000542
0.321126	-0.000770
0.327680	-0.001223
0.334234	-0.001000
0.340787	0.001569
0.347341	-0.001795
0.353894	0.002239
0.360448	-0.002457
0.367002	-0.000245
0.373555	-0.001351
0.380109	-0.000980
0.386662	5.585439E-5
0.393216	0.001430
0.399770	-0.002490
0.406323	0.001921
0.412877	-0.000777
0.419430	0.002653
0.432538	0.001745
0.445645	-0.002359
0.458752	-0.000164
0.471859	0.002028
0.484966	0.001677
0.498074	0.001427
0.511181	0.004116
0.524288	0.001023
0.537395	-0.000584
0.550502	0.000882
0.563610	0.002215
0.576717	0.000215
0.589824	0.001498
0.602931	0.000386
0.616038	-0.001440
0.629146	-0.001507
0.642253	-0.001418
0.655360	0.003041
0.668467	0.001159
0.681574	0.000716
0.694682	-0.000294
0.707789	0.001209
0.720896	0.001526
0.734003	0.000820
0.747110	0.001125
0.760218	0.003176
0.773325	0.001592
0.786432	-0.000458
0.799539	0.002765
0.812646	0.000292
0.825754	-0.000801
0.838861	0.000727
0.865075	-0.001623
0.891290	-0.000807
0.917504	0.002153
0.943718	0.001992
0.969933	0.001347
0.996147	0.000394
1.022362	0.001824
1.048576	3.686771E-5
1.074790	0.001495
1.101005	0.001365
1.127219	0.001320
1.153434	0.000549
1.179648	-0.000519
1.205862	-0.000947
1.232077	-0.000298
1.258291	0.000808
1.284506	0.000635
1.310720	0.002134
1.336934	0.000782
1.363149	0.000511
1.389363	-0.000721
1.415578	-0.000309
1.441792	1.459639E-5
1.468006	0.000531
1.494221	0.002551
1.520435	-0.000535
1.546650	0.001747
1.572864	0.000685
1.599078	0.001070
1.625293	0.000268
1.651507	0.001044
1.677722	0.000721
1.730150	-0.000477
1.782579	0.001111
1.835008	-0.000371
1.887437	0.001600
1.939866	0.001160
1.992294	0.000422
2.044723	0.000425
2.097152	0.001440
2.149581	0.000334
2.202010	0.000485
2.254438	-0.000445
2.306867	-0.000536
2.359296	0.001414
2.411725	0.000797
2.464154	0.000936
2.516582	-0.001253
2.569011	0.000201
2.621440	0.000708
2.673869	0.000963
2.726298	0.000636
2.778726	-3.087606E-6
2.831155	0.000952
2.883584	0.000741
2.936013	0.000434
2.988442	0.000973
3.040870	-0.000141
3.093299	-0.000292
3.145728	0.001346
3.198157	0.001315
3.250586	-0.001417
3.303015	-0.001859
3.355443	0.000200
3.460301	0.000196
3.565158	0.000827
3.670016	-0.000551
3.774873	0.000372
3.879731	-1.062051E-6
3.984589	0.000595
4.089447	-0.000176
4.194304	8.047663E-6
4.299161	0.000676
4.404019	0.000104
4.508877	0.000651
4.613734	0.000142
4.718592	-0.000803
4.823450	-0.001051
4.928307	-0.000312
5.033165	0.001070
5.138022	0.000813
5.242880	0.000293
5.347738	0.000219
5.452595	-0.000572
5.557453	-0.000316
5.662311	0.000400
5.767168	0.001611
5.872025	0.000703
5.976883	0.000203
6.081741	-0.000606
6.186598	0.000750
6.291456	3.842681E-5
6.396314	0.000672
6.501171	-0.000472
6.606029	-0.000134
6.710886	1.385978E-5
6.920601	-1.321984E-5
7.130317	-0.000434
7.340032	0.000423
7.549747	-0.000651
7.759462	0.000743
7.969178	0.000778
8.178893	0.000246
8.388608	6.221678E-5
8.598323	0.001132
8.808039	0.000779
9.017754	9.470285E-5
9.227468	7.140041E-5
9.437184	2.536876E-5
9.646899	0.000691
9.856614	0.000451
10.066330	0.000173
10.276045	0.000429
10.485760	0.001062
10.695476	0.000231
10.905190	0.000779
11.114905	-0.000243
11.324621	0.001282
11.534336	0.000704
11.744051	-0.000355
11.953767	0.001289
12.163482	-0.000987
12.373197	0.000795
12.582912	0.001360
12.792627	0.000380
13.002342	-0.000671
13.212058	0.001021
13.421773	9.499682E-5
13.841203	0.000694
14.260633	0.000188
14.680064	-0.000234
15.099494	-0.000541
15.518925	-8.164460E-5
15.938355	9.978855E-5
16.357786	-1.007493E-5
16.777216	-0.000685
17.196646	-0.000256
17.616077	0.000213
18.035507	-0.000338
18.454937	0.000278
18.874369	0.000000
19.293798	NaN
19.713228	NaN
20.132660	NaN
20.552090	NaN
20.971519	NaN
21.390951	NaN
21.810381	NaN
22.229811	NaN
22.649242	NaN
23.068672	NaN
23.488102	NaN
23.907534	NaN
24.326963	NaN
24.746393	NaN
25.165825	NaN
25.585255	NaN
26.004684	NaN
26.424116	NaN
26.843546	NaN
27.682405	NaN
28.521267	NaN
29.360128	NaN
30.198988	NaN
31.037849	NaN
31.876711	NaN
32.715572	NaN
33.554432	NaN
34.393291	NaN
35.232155	NaN
36.071014	NaN
36.909874	NaN
37.748737	NaN
38.587597	NaN
39.426456	NaN
40.265320	NaN
41.104179	NaN
41.943039	NaN
42.781902	NaN
43.620762	NaN
44.459621	NaN
45.298485	NaN
46.137344	NaN
46.976204	NaN
47.815067	NaN
48.653927	NaN
49.492786	NaN
50.331650	NaN
51.170509	NaN
52.009369	NaN
52.848232	NaN
53.687092	NaN
55.364811	NaN
57.042534	NaN
58.720257	NaN
60.397976	NaN
62.075699	NaN
63.753422	NaN
65.431145	NaN
67.108864	NaN
68.786583	NaN
70.464310	NaN
72.142029	NaN
73.819748	NaN
75.497475	NaN
77.175194	NaN
78.852913	NaN
80.530640	NaN
82.208359	NaN
83.886078	NaN
85.563805	NaN
87.241524	NaN
88.919243	NaN
90.596970	NaN
92.274689	NaN
93.952408	NaN
95.630135	NaN
97.307854	NaN
98.985573	NaN
100.663300	NaN
102.341019	NaN
104.018738	NaN
105.696465	NaN
107.374184	NaN
110.729622	NaN
114.085068	NaN
117.440514	NaN
120.795952	NaN
124.151398	NaN
127.506844	NaN
130.862289	NaN
134.217728	NaN
137.573166	NaN
140.928619	NaN
144.284058	NaN
147.639496	NaN
150.994949	NaN
154.350388	NaN
157.705826	NaN
161.061279	NaN
164.416718	NaN
167.772156	NaN
171.127609	NaN
174.483047	NaN
177.838486	NaN
181.193939	NaN
184.549377	NaN
187.904816	NaN
191.260269	NaN
194.615707	NaN
197.971146	NaN
201.326599	NaN
204.682037	NaN
208.037476	NaN
211.392929	NaN
214.748367	NaN
221.459244	NaN
228.170135	NaN
234.881027	NaN
241.591904	NaN
248.302795	NaN
255.013687	NaN
261.724579	NaN
268.435455	NaN
275.146332	NaN
281.857239	NaN
288.568115	NaN
295.278992	NaN
301.989899	NaN
308.700775	NaN
315.411652	NaN
322.122559	NaN
328.833435	NaN
335.544312	NaN
342.255219	NaN
348.966095	NaN
355.676971	NaN
362.387878	NaN
369.098755	NaN
375.809631	NaN
382.520538	NaN
389.231415	NaN
395.942291	NaN
402.653198	NaN
409.364075	NaN
416.074951	NaN
422.785858	NaN
429.496735	NaN
442.918488	NaN
456.340271	NaN
469.762054	NaN
483.183807	NaN
496.605591	NaN
510.027374	NaN
523.449158	NaN
536.870911	NaN
550.292664	NaN
563.714478	NaN
577.136230	NaN
590.557983	NaN
603.979797	NaN
617.401550	NaN
630.823303	NaN
644.245117	NaN
657.666870	NaN
671.088623	NaN
684.510437	NaN
697.932190	NaN
711.353943	NaN
724.775757	NaN
738.197510	NaN
751.619263	NaN
765.041077	NaN
778.462830	NaN
791.884583	NaN
805.306396	NaN
818.728149	NaN
832.149902	NaN
845.571716	NaN
858.993469	NaN
885.836975	NaN
912.680542	NaN
939.524109	NaN
966.367615	NaN
993.211182	NaN
1020.054749	NaN
1046.898315	NaN
1073.741821	NaN
1100.585327	NaN
1127.428955	NaN
1154.272461	NaN
1181.115967	NaN
1207.959595	NaN
1234.803101	NaN
1261.646606	NaN
1288.490234	NaN
1315.333740	NaN
1342.177246	NaN
1369.020874	NaN
1395.864380	NaN
1422.707886	NaN
1449.551514	NaN
1476.395020	NaN
1503.238525	NaN
1530.082153	NaN
1556.925659	NaN
1583.769165	NaN
1610.612793	NaN
1637.456299	NaN
1664.299805	NaN
1691.143433	NaN
1717.986938	NaN
1771.673950	NaN
1825.361084	NaN
1879.048218	NaN
1932.735229	NaN
1986.422363	NaN
2040.109497	NaN
2093.796631	NaN
2147.483643	NaN
2201.170654	NaN
2254.857910	NaN
2308.544922	NaN
2362.231934	NaN
2415.919189	NaN
2469.606201	NaN
2523.293213	NaN
2576.980469	NaN
2630.667480	NaN
2684.354492	NaN
2738.041748	NaN
2791.728760	NaN
2845.415771	NaN
2899.103027	NaN
2952.790039	NaN
3006.477051	NaN
3060.164307	NaN
3113.851318	NaN
3167.538330	NaN
3221.225586	NaN
3274.912598	NaN
3328.599609	NaN
3382.286865	NaN
3435.973877	NaN
0.000000	NaN
0.000000	NaN
0.000000	NaN
0.000000	NaN
0.000000	NaN
0.000000	NaN
0.000000	NaN
0.000000	NaN
0.000000	NaN
0.000000	NaN
0.000000	NaN
0.000000	NaN
0.000000	NaN
0.000000	NaN
0.000000	NaN
0.000000	NaN
0.000000	NaN
0.000000	NaN
0.000000	NaN
0.000000	NaN
0.000000	NaN
0.000000	NaN
0.000000	NaN
0.000000	NaN
0.000000	NaN
0.000000	NaN
0.000000	NaN
0.000000	NaN
0.000000	NaN
0.000000	NaN
0.000000	NaN
0.000000	NaN

Count Rate History (KHz)  CR CHA / CR CHB
0.000000	88.243484	87.909698
0.104858	84.943771	86.002350
0.209715	102.844238	103.511810
0.314573	112.094879	113.468170
0.419430	94.900131	94.871521
0.524288	84.486008	82.159042
0.629146	94.709396	95.014572
0.734003	96.950531	100.059509
0.838861	101.861954	100.793839
0.943718	105.199814	107.574463
1.048576	84.819794	84.409714
1.153434	98.247528	98.247528
1.258291	99.449158	100.936890
1.363149	107.755661	111.236572
1.468006	95.872879	95.787048
1.572864	98.676682	103.273392
1.677722	107.479095	111.112595
1.782579	99.554062	97.827911
1.887437	101.356506	103.750229
1.992294	98.266602	96.740723
2.097152	97.503662	101.194382
2.202010	94.938278	96.683502
2.306867	110.168457	113.248825
2.411725	93.479156	91.257095
2.516582	90.045929	90.780258
2.621440	89.483261	89.635849
2.726298	101.232529	101.757050
2.831155	106.678009	107.955933
2.936013	106.410980	105.838776
3.040870	103.836060	103.883743
3.145728	89.960098	88.024139
3.250586	107.259750	113.840103
3.355443	110.902786	113.191605
3.460301	106.506348	105.199814
3.565158	98.161697	93.660355
3.670016	106.143951	108.928680
3.774874	126.504898	134.849548
3.879731	110.158920	109.291077
3.984589	94.852448	98.562241
4.089446	97.332001	94.451904
4.194304	98.361969	100.517273
4.299162	109.252930	110.158920
4.404019	95.434189	94.242096
4.508877	99.020004	100.002289
4.613734	98.361969	98.323822
4.718592	114.631653	115.880966
4.823450	106.620789	103.597641
4.928307	107.126236	111.103058
5.033165	105.915070	106.248856
5.138022	94.451904	94.575882
5.242880	103.750229	104.436874
5.347738	94.099045	95.472336
5.452595	101.337433	103.693008
5.557453	109.739304	111.732483
5.662310	89.454651	90.713501
5.767168	94.366074	95.357895
5.872026	93.622208	92.296600
5.976883	88.005066	85.573196
6.081741	118.570328	123.291016
6.186598	96.530914	97.103119
6.291456	107.212067	107.717514
6.396314	103.187561	100.765228
6.501171	113.143921	112.428665
6.606029	102.262497	100.898743
6.710886	85.916519	89.206696
6.815744	98.695755	100.383759
6.920602	100.660324	100.574493
7.025459	112.981796	113.229752
7.130317	116.863251	120.973587
7.235174	128.259659	128.641129
7.340032	120.620728	124.864578
7.444890	89.902878	91.247559
7.549747	90.932846	92.334747
7.654605	125.417709	128.440857
7.759462	83.761215	81.768036
7.864320	101.747513	102.987289
7.969178	110.874176	118.007660
8.074035	100.212097	96.845627
8.178893	108.613968	109.424591
8.283750	97.265244	100.402832
8.388608	114.536285	117.664337
8.493466	102.119446	98.733902
8.598323	89.712143	88.672638
8.703181	99.887848	100.889206
8.808038	104.551315	104.351044
8.912896	104.742050	109.395981
9.017754	98.371506	95.462799
9.122611	113.496780	116.004944
9.227469	115.423203	115.585327
9.332326	98.724365	103.712082
9.437184	101.690292	104.541779
9.542042	110.063553	110.139847
9.646899	93.889236	94.795227
9.751757	111.427307	115.871429
9.856614	103.702545	103.778839
9.961472	101.499557	102.376938
10.066330	110.273361	113.267899
10.171187	113.096237	115.661621
10.276045	100.107193	98.009109
10.380902	102.977753	109.176636
10.485760	106.420517	104.408264
10.590618	96.588135	93.116760
10.695475	93.460083	93.488693
10.800333	97.599030	100.927353
10.905190	112.047195	110.054016
11.010048	88.500977	86.793900
11.114906	112.314224	115.327835
11.219763	88.691711	87.938309
11.324621	107.307434	109.872818
11.429478	101.995468	103.273392
11.534336	103.616714	104.045868
11.639194	111.742020	114.488602
11.744051	96.387863	100.812912
11.848909	107.326508	102.901459
11.953766	87.594986	86.517334
12.058624	104.856491	105.552673
12.163482	113.544464	113.439560
12.268339	118.093491	116.176605
12.373197	99.248886	99.267960
12.478054	89.120865	89.159012
12.582912	93.059540	93.288422
12.687770	102.043152	102.996826
12.792627	94.385147	98.495483
12.897485	118.656158	121.469498
13.002342	94.957352	99.096298
13.107200	113.983154	109.176636
13.212058	87.814331	85.649490
13.316915	111.637115	116.310120
13.421773	112.190247	111.999512
13.526630	122.604370	125.913620
13.631488	94.375610	90.599060
13.736346	100.660324	101.652145
13.841203	104.341507	106.048584
13.946061	89.759827	92.487335
14.050918	107.994080	108.947754
14.155776	98.686218	101.833344
14.260634	131.359100	128.068924
14.365491	95.081329	99.401474
14.470349	101.728439	100.917816
14.575206	101.633072	99.811554
14.680064	103.693008	102.748871
14.784922	97.427368	100.851059
14.889779	106.925964	105.438232
14.994637	116.853714	117.130280
15.099494	112.028122	114.307404
15.204352	117.139816	116.910934
15.309210	104.112625	107.650757
15.414067	100.154877	98.867416
15.518925	103.588104	101.566315
15.623782	107.507706	107.641220
15.728640	115.566254	117.053986
15.833498	117.473602	121.431351
15.938355	111.265182	109.634399
16.043213	105.009079	104.389191
16.148070	120.325089	124.340057
16.252928	111.322403	115.547180
16.357786	109.329224	103.664398
16.462643	113.945007	116.147995
16.567501	109.338760	110.158920
16.672358	102.882385	101.852417
16.777216	90.341568	94.175339
16.882074	115.394592	117.092133
16.986931	98.562241	100.049973
17.091789	111.589432	117.750168
17.196646	98.438263	97.169876
17.301504	127.363205	127.477646
17.406362	124.673843	128.812790
17.511219	109.510422	115.060806
17.616077	113.496780	114.736557
17.720934	94.022751	93.088150
17.825792	117.816925	123.739243
17.930650	109.624863	110.836029
18.035507	124.835968	129.604340
18.140365	96.311569	96.683502
18.245222	93.297958	93.946457
18.350080	101.127625	101.613998
18.454938	105.304718	103.836060
18.559795	112.228394	115.642548
18.664653	110.759735	111.885071
18.769510	109.996796	111.217499
18.874368	122.051239	125.217438
18.979226	103.540421	100.288391
19.084083	102.834702	105.895996
19.188941	100.078583	98.972321
19.293798	103.149414	106.639862
19.398656	105.304718	100.669861
19.503514	107.297897	108.270645
19.608371	92.782974	94.013214
19.713229	96.883774	95.891953
