1/9/2026	8:57 AM
Pseudo Cross Correlation
Scattering angle:	80.0
Duration (s):	20
Wavelength (nm):	632.8
Refractive index:	1.330
Viscosity (mPas):	0.882
Temperature (K):	298.5
Laser intensity (mW):	8.496114
Average Count rate  A (kHz):	89.1
Average Count rate  B (kHz):	89.6
Intercept:	0.9177
Cumulant 1st	153.14
Cumulant 2nd	147.08	31.34
Cumulant 3rd	146.09	37.18

Lag time (s)         g2-1
1.250000E-8	0.919823
2.500000E-8	0.913751
3.750000E-8	0.930955
5.000000E-8	0.895028
6.250000E-8	0.925389
7.500000E-8	0.935004
8.750000E-8	0.907173
1.000000E-7	0.962834
1.125000E-7	0.923871
1.250000E-7	0.961822
1.375000E-7	0.896040
1.500000E-7	0.913751
1.625000E-7	0.937028
1.750000E-7	0.897558
1.875000E-7	0.910209
2.000000E-7	0.911221
2.125000E-7	0.912739
2.250000E-7	0.921847
2.375000E-7	0.886932
2.500000E-7	0.944112
2.625000E-7	0.931967
2.750000E-7	0.902619
2.875000E-7	0.948160
3.000000E-7	0.913751
3.125000E-7	0.895028
3.250000E-7	0.979027
3.375000E-7	0.965870
3.500000E-7	0.948666
3.625000E-7	0.926401
3.750000E-7	0.944112
3.875000E-7	0.909197
4.000000E-7	0.924377
4.125000E-7	0.905655
4.250000E-7	0.941582
4.375000E-7	0.996737
4.500000E-7	0.888956
4.625000E-7	0.883896
4.750000E-7	0.951196
4.875000E-7	0.927413
5.000000E-7	0.904137
5.125000E-7	0.896546
5.250000E-7	0.881872
5.375000E-7	0.970425
5.500000E-7	0.900088
5.625000E-7	0.958786
5.750000E-7	0.902619
5.875000E-7	0.910715
6.000000E-7	0.931461
6.125000E-7	0.982569
6.250000E-7	0.876812
6.375000E-7	0.941582
6.500000E-7	0.930955
6.625000E-7	0.933991
6.750000E-7	0.925389
6.875000E-7	0.829752
7.000000E-7	0.878836
7.125000E-7	0.880354
7.250000E-7	0.954232
7.375000E-7	0.952208
7.500000E-7	0.949172
7.625000E-7	0.919823
7.750000E-7	0.935510
7.875000E-7	0.915775
8.000000E-7	0.938040
8.250000E-7	0.962581
8.500000E-7	0.926401
8.750000E-7	0.936269
9.000000E-7	0.893004
9.250000E-7	0.912739
9.500000E-7	0.899076
9.750000E-7	0.931461
1.000000E-6	0.923618
1.025000E-6	0.923618
1.050000E-6	0.898317
1.075000E-6	0.950690
1.100000E-6	0.915775
1.125000E-6	0.914763
1.150000E-6	0.927666
1.175000E-6	0.922606
1.200000E-6	0.895281
1.225000E-6	0.952714
1.250000E-6	0.923112
1.275000E-6	0.881113
1.300000E-6	0.908185
1.325000E-6	0.906414
1.350000E-6	0.947148
1.375000E-6	0.927919
1.400000E-6	0.891739
1.425000E-6	0.926654
1.450000E-6	0.926148
1.475000E-6	0.902113
1.500000E-6	0.869981
1.525000E-6	0.906161
1.550000E-6	0.924630
1.575000E-6	0.920582
1.600000E-6	0.912992
1.650000E-6	0.889336
1.700000E-6	0.924377
1.750000E-6	0.909070
1.800000E-6	0.877065
1.850000E-6	0.917040
1.900000E-6	0.934118
1.950000E-6	0.922480
2.000000E-6	0.910588
2.050000E-6	0.911347
2.100000E-6	0.938293
2.150000E-6	0.934118
2.200000E-6	0.936522
2.250000E-6	0.887438
2.300000E-6	0.913751
2.350000E-6	0.906667
2.400000E-6	0.927666
2.450000E-6	0.926148
2.500000E-6	0.922733
2.550000E-6	0.889462
2.600000E-6	0.923998
2.650000E-6	0.906667
2.700000E-6	0.928931
2.750000E-6	0.903757
2.800000E-6	0.900847
2.850000E-6	0.913245
2.900000E-6	0.914510
2.950000E-6	0.936142
3.000000E-6	0.921088
3.050000E-6	0.892878
3.100000E-6	0.915775
3.150000E-6	0.915522
3.200000E-6	0.904769
3.300000E-6	0.915585
3.400000E-6	0.930260
3.500000E-6	0.916471
3.600000E-6	0.909387
3.700000E-6	0.909956
3.800000E-6	0.918495
3.900000E-6	0.912676
4.000000E-6	0.909956
4.100000E-6	0.914636
4.200000E-6	0.899013
4.300000E-6	0.908754
4.400000E-6	0.906603
4.500000E-6	0.904896
4.600000E-6	0.915142
4.700000E-6	0.928615
4.800000E-6	0.922416
4.900000E-6	0.910146
5.000000E-6	0.917166
5.100000E-6	0.889399
5.200000E-6	0.905655
5.300000E-6	0.884275
5.400000E-6	0.920582
5.500000E-6	0.925263
5.600000E-6	0.922290
5.700000E-6	0.924567
5.800000E-6	0.930449
5.900000E-6	0.900784
6.000000E-6	0.904643
6.100000E-6	0.914194
6.200000E-6	0.902302
6.300000E-6	0.913371
6.400000E-6	0.911980
6.600000E-6	0.914320
6.800000E-6	0.921056
7.000000E-6	0.900721
7.200000E-6	0.913055
7.400000E-6	0.913435
7.600000E-6	0.909545
7.800000E-6	0.918811
8.000000E-6	0.910051
8.200000E-6	0.905939
8.400000E-6	0.905338
8.600000E-6	0.903219
8.800000E-6	0.921056
9.000000E-6	0.921183
9.200000E-6	0.898033
9.400000E-6	0.910430
9.600000E-6	0.913118
9.800000E-6	0.896768
1.000000E-5	0.900088
1.020000E-5	0.906793
1.040000E-5	0.891834
1.060000E-5	0.909165
1.080000E-5	0.899298
1.100000E-5	0.898381
1.120000E-5	0.898191
1.140000E-5	0.904832
1.160000E-5	0.907141
1.180000E-5	0.910177
1.200000E-5	0.900436
1.220000E-5	0.916660
1.240000E-5	0.894333
1.260000E-5	0.907078
1.280000E-5	0.906635
1.320000E-5	0.906445
1.360000E-5	0.902634
1.400000E-5	0.911300
1.440000E-5	0.921025
1.480000E-5	0.913371
1.520000E-5	0.894317
1.560000E-5	0.892957
1.600000E-5	0.892071
1.640000E-5	0.902350
1.680000E-5	0.901290
1.720000E-5	0.890284
1.760000E-5	0.903014
1.800000E-5	0.901085
1.840000E-5	0.901638
1.880000E-5	0.899994
1.920000E-5	0.906651
1.960000E-5	0.905386
2.000000E-5	0.901401
2.040000E-5	0.895977
2.080000E-5	0.897558
2.120000E-5	0.901670
2.160000E-5	0.905576
2.200000E-5	0.902049
2.240000E-5	0.905813
2.280000E-5	0.905623
2.320000E-5	0.891976
2.360000E-5	0.893226
2.400000E-5	0.901591
2.440000E-5	0.886426
2.480000E-5	0.891676
2.520000E-5	0.880069
2.560000E-5	0.887138
2.640000E-5	0.891747
2.720000E-5	0.890435
2.800000E-5	0.889636
2.880000E-5	0.883224
2.960000E-5	0.891795
3.040000E-5	0.893139
3.120000E-5	0.889098
3.200000E-5	0.885778
3.280000E-5	0.887936
3.360000E-5	0.885240
3.440000E-5	0.882196
3.520000E-5	0.884560
3.600000E-5	0.887446
3.680000E-5	0.886885
3.760000E-5	0.883026
3.840000E-5	0.881658
3.920000E-5	0.874044
4.000000E-5	0.884394
4.080000E-5	0.889715
4.160000E-5	0.882734
4.240000E-5	0.880457
4.320000E-5	0.871562
4.400000E-5	0.878686
4.480000E-5	0.873341
4.560000E-5	0.872772
4.640000E-5	0.870771
4.720000E-5	0.871048
4.800000E-5	0.872447
4.880000E-5	0.868992
4.960000E-5	0.873981
5.040000E-5	0.875618
5.120000E-5	0.872914
5.280000E-5	0.874916
5.440000E-5	0.866915
5.600000E-5	0.867547
5.760000E-5	0.860902
5.920000E-5	0.865112
6.080000E-5	0.860182
6.240000E-5	0.861341
6.400000E-5	0.856838
6.560000E-5	0.861657
6.720000E-5	0.855628
6.880000E-5	0.857625
7.040000E-5	0.858368
7.200000E-5	0.856930
7.360000E-5	0.845457
7.520000E-5	0.846438
7.680000E-5	0.849810
7.840000E-5	0.848341
8.000000E-5	0.846645
8.160000E-5	0.846720
8.320000E-5	0.840680
8.480000E-5	0.847108
8.640000E-5	0.842174
8.800000E-5	0.842372
8.960000E-5	0.837213
9.120000E-5	0.841202
9.280000E-5	0.837383
9.440000E-5	0.836916
9.600000E-5	0.831769
9.760000E-5	0.836849
9.920000E-5	0.830864
0.000101	0.829373
0.000102	0.822020
0.000106	0.827729
0.000109	0.826944
0.000112	0.819555
0.000115	0.820139
0.000118	0.819059
0.000122	0.818014
0.000125	0.812295
0.000128	0.807307
0.000131	0.804702
0.000134	0.802826
0.000138	0.802245
0.000141	0.798671
0.000144	0.797999
0.000147	0.791445
0.000150	0.792061
0.000154	0.788881
0.000157	0.787424
0.000160	0.782049
0.000163	0.777830
0.000166	0.777921
0.000170	0.774725
0.000173	0.773491
0.000176	0.769721
0.000179	0.768707
0.000182	0.768935
0.000186	0.764973
0.000189	0.763278
0.000192	0.762820
0.000195	0.755935
0.000198	0.754124
0.000202	0.751137
0.000205	0.751437
0.000211	0.744696
0.000218	0.743542
0.000224	0.738019
0.000230	0.734274
0.000237	0.727327
0.000243	0.722852
0.000250	0.718149
0.000256	0.713507
0.000262	0.710156
0.000269	0.707147
0.000275	0.699914
0.000282	0.699443
0.000288	0.696120
0.000294	0.690475
0.000301	0.684988
0.000307	0.683219
0.000314	0.678677
0.000320	0.670294
0.000326	0.668414
0.000333	0.664957
0.000339	0.662378
0.000346	0.657518
0.000352	0.654343
0.000358	0.647965
0.000365	0.645007
0.000371	0.640666
0.000378	0.638373
0.000384	0.633836
0.000390	0.629485
0.000397	0.625702
0.000403	0.624095
0.000410	0.618185
0.000422	0.610613
0.000435	0.604943
0.000448	0.598730
0.000461	0.588889
0.000474	0.584813
0.000486	0.576668
0.000499	0.569837
0.000512	0.562674
0.000525	0.555805
0.000538	0.548280
0.000550	0.542238
0.000563	0.536278
0.000576	0.529146
0.000589	0.523243
0.000602	0.517116
0.000614	0.509848
0.000627	0.502208
0.000640	0.498441
0.000653	0.489357
0.000666	0.486632
0.000678	0.479504
0.000691	0.473278
0.000704	0.466846
0.000717	0.461162
0.000730	0.456718
0.000742	0.451638
0.000755	0.444867
0.000768	0.441672
0.000781	0.436253
0.000794	0.430616
0.000806	0.424476
0.000819	0.419218
0.000845	0.410065
0.000870	0.399091
0.000896	0.390775
0.000922	0.380639
0.000947	0.372473
0.000973	0.363087
0.000998	0.354730
0.001024	0.345962
0.001050	0.337737
0.001075	0.328903
0.001101	0.320739
0.001126	0.313774
0.001152	0.307002
0.001178	0.298125
0.001203	0.293072
0.001229	0.286336
0.001254	0.280897
0.001280	0.273587
0.001306	0.268317
0.001331	0.262791
0.001357	0.256838
0.001382	0.250950
0.001408	0.244029
0.001434	0.240026
0.001459	0.233425
0.001485	0.229336
0.001510	0.224777
0.001536	0.219533
0.001562	0.213563
0.001587	0.207888
0.001613	0.202521
0.001638	0.198485
0.001690	0.190218
0.001741	0.181020
0.001792	0.172365
0.001843	0.163831
0.001894	0.156553
0.001946	0.150432
0.001997	0.142777
0.002048	0.135495
0.002099	0.130191
0.002150	0.124641
0.002202	0.117726
0.002253	0.112842
0.002304	0.108564
0.002355	0.104623
0.002406	0.099880
0.002458	0.096973
0.002509	0.092814
0.002560	0.088715
0.002611	0.085335
0.002662	0.081743
0.002714	0.078736
0.002765	0.075479
0.002816	0.072225
0.002867	0.068640
0.002918	0.064724
0.002970	0.061525
0.003021	0.058243
0.003072	0.054743
0.003123	0.050261
0.003174	0.047624
0.003226	0.045296
0.003277	0.042905
0.003379	0.037420
0.003482	0.033609
0.003584	0.030833
0.003686	0.028653
0.003789	0.026699
0.003891	0.024060
0.003994	0.024203
0.004096	0.022759
0.004198	0.022619
0.004301	0.021363
0.004403	0.021469
0.004506	0.020828
0.004608	0.019990
0.004710	0.019654
0.004813	0.019291
0.004915	0.018917
0.005018	0.018606
0.005120	0.020621
0.005222	0.021018
0.005325	0.022028
0.005427	0.022088
0.005530	0.023908
0.005632	0.024052
0.005734	0.024685
0.005837	0.025344
0.005939	0.024748
0.006042	0.024742
0.006144	0.024856
0.006246	0.025712
0.006349	0.026094
0.006451	0.024583
0.006554	0.023801
0.006758	0.022637
0.006963	0.021842
0.007168	0.021149
0.007373	0.021826
0.007578	0.022665
0.007782	0.024106
0.007987	0.024861
0.008192	0.025069
0.008397	0.025385
0.008602	0.025705
0.008806	0.026239
0.009011	0.026472
0.009216	0.026068
0.009421	0.025229
0.009626	0.023887
0.009830	0.023410
0.010035	0.020667
0.010240	0.017561
0.010445	0.016579
0.010650	0.015261
0.010854	0.014934
0.011059	0.014962
0.011264	0.014947
0.011469	0.015560
0.011674	0.017253
0.011878	0.018130
0.012083	0.017430
0.012288	0.017450
0.012493	0.016969
0.012698	0.016654
0.012902	0.016405
0.013107	0.015996
0.013517	0.012525
0.013926	0.008680
0.014336	0.005933
0.014746	0.008263
0.015155	0.011502
0.015565	0.014760
0.015974	0.016887
0.016384	0.017027
0.016794	0.015274
0.017203	0.014056
0.017613	0.012540
0.018022	0.013247
0.018432	0.013754
0.018842	0.013163
0.019251	0.012592
0.019661	0.009770
0.020070	0.007354
0.020480	0.009577
0.020890	0.011891
0.021299	0.011178
0.021709	0.009830
0.022118	0.008642
0.022528	0.008671
0.022938	0.008391
0.023347	0.010799
0.023757	0.013126
0.024166	0.011732
0.024576	0.009866
0.024986	0.006927
0.025395	0.007261
0.025805	0.006299
0.026214	0.003354
0.027034	0.001423
0.027853	0.002366
0.028672	0.005143
0.029491	0.008510
0.030310	0.008362
0.031130	0.006870
0.031949	0.009568
0.032768	0.014719
0.033587	0.013825
0.034406	0.015227
0.035226	0.011842
0.036045	0.005218
0.036864	0.001572
0.037683	-0.001117
0.038502	0.001752
0.039322	0.000458
0.040141	0.000454
0.040960	0.005337
0.041779	0.009863
0.042598	0.008946
0.043418	0.003395
0.044237	0.000949
0.045056	-0.001343
0.045875	-0.003519
0.046694	-0.001971
0.047514	-0.002967
0.048333	-0.000272
0.049152	0.000313
0.049971	0.003347
0.050790	0.011134
0.051610	0.015303
0.052429	0.014929
0.054067	0.003717
0.055706	0.006768
0.057344	0.010957
0.058982	0.012943
0.060621	0.012341
0.062259	0.004208
0.063898	0.004393
0.065536	0.001238
0.067174	-0.003715
0.068813	0.001890
0.070451	0.007374
0.072090	0.004880
0.073728	0.001265
0.075366	0.017007
0.077005	0.020941
0.078643	0.013985
0.080282	0.008987
0.081920	0.007369
0.083558	0.002107
0.085197	0.005890
0.086835	0.010690
0.088474	0.010610
0.090112	0.002982
0.091750	-0.000502
0.093389	0.000164
0.095027	0.004090
0.096666	0.008099
0.098304	0.010033
0.099942	-0.002158
0.101581	-0.003406
0.103219	0.002029
0.104858	0.009493
0.108134	0.016253
0.111411	0.008455
0.114688	0.008921
0.117965	0.004156
0.121242	0.001065
0.124518	0.013673
0.127795	0.009873
0.131072	0.005048
0.134349	-0.000556
0.137626	0.000753
0.140902	0.000235
0.144179	-0.007025
0.147456	-0.013422
0.150733	-0.004399
0.154010	-0.009547
0.157286	-0.001217
0.160563	0.001896
0.163840	0.003505
0.167117	-0.000272
0.170394	0.011678
0.173670	0.010833
0.176947	0.013220
0.180224	0.009760
0.183501	0.011617
0.186778	0.010689
0.190054	-0.002269
0.193331	5.496865E-5
0.196608	-9.405060E-5
0.199885	0.009621
0.203162	0.002219
0.206438	-0.001491
0.209715	0.003972
0.216269	0.010428
0.222822	0.005348
0.229376	0.002866
0.235930	0.002278
0.242483	-0.004309
0.249037	-0.002509
0.255590	0.001161
0.262144	0.004150
0.268698	0.005576
0.275251	-0.002633
0.281805	0.003848
0.288358	-9.145253E-6
0.294912	-5.651476E-5
0.301466	0.001781
0.308019	-0.004450
0.314573	0.004327
0.321126	0.001607
0.327680	-0.001480
0.334234	0.001686
0.340787	0.011343
0.347341	0.000213
0.353894	-0.001076
0.360448	0.003994
0.367002	0.001518
0.373555	0.000224
0.380109	-0.007566
0.386662	-0.004960
0.393216	0.000360
0.399770	0.002652
0.406323	0.004854
0.412877	-0.000437
0.419430	0.004171
0.432538	-0.006114
0.445645	0.003850
0.458752	-0.001267
0.471859	-0.000941
0.484966	0.000182
0.498074	-0.004417
0.511181	-0.002983
0.524288	0.002595
0.537395	0.002458
0.550502	-0.000405
0.563610	-0.004698
0.576717	-0.006176
0.589824	-0.003458
0.602931	-0.004063
0.616038	8.243096E-5
0.629146	-0.005053
0.642253	-0.006790
0.655360	0.002414
0.668467	0.001022
0.681574	-0.002242
0.694682	-0.001170
0.707789	-0.006138
0.720896	-0.008637
0.734003	0.000664
0.747110	-0.007474
0.760218	-0.001872
0.773325	-0.002353
0.786432	-0.002439
0.799539	-0.006868
0.812646	0.000166
0.825754	-0.005507
0.838861	0.003975
0.865075	0.005383
0.891290	0.003896
0.917504	-0.000208
0.943718	-0.007547
0.969933	-0.000272
0.996147	0.002334
1.022362	-0.001527
1.048576	0.002831
1.074790	-0.001153
1.101005	0.000321
1.127219	0.000431
1.153434	-0.003428
1.179648	0.002586
1.205862	-0.003092
1.232077	-0.004695
1.258291	8.444534E-5
1.284506	-0.002502
1.310720	0.002087
1.336934	0.000504
1.363149	0.002569
1.389363	0.003475
1.415578	0.003087
1.441792	0.000284
1.468006	0.002016
1.494221	0.002273
1.520435	-0.002511
1.546650	0.000394
1.572864	0.000560
1.599078	-0.001464
1.625293	-0.005647
1.651507	0.002976
1.677722	-0.000991
1.730150	-0.001030
1.782579	0.000436
1.835008	-8.652720E-7
1.887437	0.000447
1.939866	-0.002285
1.992294	-0.003099
2.044723	-0.002547
2.097152	0.000334
2.149581	-0.001818
2.202010	-0.004729
2.254438	-0.002540
2.306867	-0.002311
2.359296	0.000705
2.411725	-0.000813
2.464154	0.001494
2.516582	-0.000295
2.569011	-0.001190
2.621440	-0.002109
2.673869	-0.000730
2.726298	-0.005474
2.778726	0.001334
2.831155	0.001473
2.883584	0.001765
2.936013	0.002664
2.988442	0.001939
3.040870	0.001315
3.093299	0.002833
3.145728	0.001506
3.198157	0.000505
3.250586	-0.000948
3.303015	0.000676
3.355443	-0.001213
3.460301	8.620523E-5
3.565158	-0.000456
3.670016	-0.002138
3.774873	-0.000895
3.879731	-0.001463
3.984589	0.001420
4.089447	-0.001433
4.194304	-0.000619
4.299161	0.000489
4.404019	0.001495
4.508877	-0.002285
4.613734	-0.001625
4.718592	-0.000671
4.823450	-0.001540
4.928307	0.000464
5.033165	0.000577
5.138022	0.001844
5.242880	0.001290
5.347738	0.002094
5.452595	0.003915
5.557453	0.002320
5.662311	0.002675
5.767168	0.002256
5.872025	3.872592E-5
5.976883	-0.001972
6.081741	-0.000390
6.186598	-0.003583
6.291456	-0.002282
6.396314	-0.003277
6.501171	-7.339205E-5
6.606029	-0.000225
6.710886	0.001225
6.920601	0.006930
7.130317	0.000911
7.340032	-0.003176
7.549747	-0.004978
7.759462	-0.003722
7.969178	0.003971
8.178893	-0.002411
8.388608	-0.000598
8.598323	0.000519
8.808039	-0.000726
9.017754	-0.001956
9.227468	-0.000670
9.437184	-0.000107
9.646899	-0.003194
9.856614	0.002385
10.066330	0.003841
10.276045	0.000257
10.485760	0.000987
10.695476	-0.000732
10.905190	0.005067
11.114905	-0.000323
11.324621	0.001518
11.534336	0.001477
11.744051	-0.004074
11.953767	-0.001439
12.163482	-0.002180
12.373197	0.002601
12.582912	-0.003676
12.792627	-0.005964
13.002342	0.000578
13.212058	-0.004800
13.421773	0.000145
13.841203	0.007371
14.260633	-8.453240E-5
14.680064	-0.004779
15.099494	0.001766
15.518925	-0.000737
15.938355	0.000996
16.357786	-0.004507
16.777216	0.003047
17.196646	0.009246
17.616077	-0.011419
18.035507	0.000187
18.454937	-0.000909
18.874369	0.000000
19.293798	NaN
19.713228	NaN
20.132660	NaN
20.552090	NaN
20.971519	NaN
21.390951	NaN
21.810381	NaN
22.229811	NaN
22.649242	NaN
23.068672	NaN
23.488102	NaN
23.907534	NaN
24.326963	NaN
24.746393	NaN
25.165825	NaN
25.585255	NaN
26.004684	NaN
26.424116	NaN
26.843546	NaN
27.682405	NaN
28.521267	NaN
29.360128	NaN
30.198988	NaN
31.037849	NaN
31.876711	NaN
32.715572	NaN
33.554432	NaN
34.393291	NaN
35.232155	NaN
36.071014	NaN
36.909874	NaN
37.748737	NaN
38.587597	NaN
39.426456	NaN
40.265320	NaN
41.104179	NaN
41.943039	NaN
42.781902	NaN
43.620762	NaN
44.459621	NaN
45.298485	NaN
46.137344	NaN
46.976204	NaN
47.815067	NaN
48.653927	NaN
49.492786	NaN
50.331650	NaN
51.170509	NaN
52.009369	NaN
52.848232	NaN
53.687092	NaN
55.364811	NaN
57.042534	NaN
58.720257	NaN
60.397976	NaN
62.075699	NaN
63.753422	NaN
65.431145	NaN
67.108864	NaN
68.786583	NaN
70.464310	NaN
72.142029	NaN
73.819748	NaN
75.497475	NaN
77.175194	NaN
78.852913	NaN
80.530640	NaN
82.208359	NaN
83.886078	NaN
85.563805	NaN
87.241524	NaN
88.919243	NaN
90.596970	NaN
92.274689	NaN
93.952408	NaN
95.630135	NaN
97.307854	NaN
98.985573	NaN
100.663300	NaN
102.341019	NaN
104.018738	NaN
105.696465	NaN
107.374184	NaN
110.729622	NaN
114.085068	NaN
117.440514	NaN
120.795952	NaN
124.151398	NaN
127.506844	NaN
130.862289	NaN
134.217728	NaN
137.573166	NaN
140.928619	NaN
144.284058	NaN
147.639496	NaN
150.994949	NaN
154.350388	NaN
157.705826	NaN
161.061279	NaN
164.416718	NaN
167.772156	NaN
171.127609	NaN
174.483047	NaN
177.838486	NaN
181.193939	NaN
184.549377	NaN
187.904816	NaN
191.260269	NaN
194.615707	NaN
197.971146	NaN
201.326599	NaN
204.682037	NaN
208.037476	NaN
211.392929	NaN
214.748367	NaN
221.459244	NaN
228.170135	NaN
234.881027	NaN
241.591904	NaN
248.302795	NaN
255.013687	NaN
261.724579	NaN
268.435455	NaN
275.146332	NaN
281.857239	NaN
288.568115	NaN
295.278992	NaN
301.989899	NaN
308.700775	NaN
315.411652	NaN
322.122559	NaN
328.833435	NaN
335.544312	NaN
342.255219	NaN
348.966095	NaN
355.676971	NaN
362.387878	NaN
369.098755	NaN
375.809631	NaN
382.520538	NaN
389.231415	NaN
395.942291	NaN
402.653198	NaN
409.364075	NaN
416.074951	NaN
422.785858	NaN
429.496735	NaN
442.918488	NaN
456.340271	NaN
469.762054	NaN
483.183807	NaN
496.605591	NaN
510.027374	NaN
523.449158	NaN
536.870911	NaN
550.292664	NaN
563.714478	NaN
577.136230	NaN
590.557983	NaN
603.979797	NaN
617.401550	NaN
630.823303	NaN
644.245117	NaN
657.666870	NaN
671.088623	NaN
684.510437	NaN
697.932190	NaN
711.353943	NaN
724.775757	NaN
738.197510	NaN
751.619263	NaN
765.041077	NaN
778.462830	NaN
791.884583	NaN
805.306396	NaN
818.728149	NaN
832.149902	NaN
845.571716	NaN
858.993469	NaN
885.836975	NaN
912.680542	NaN
939.524109	NaN
966.367615	NaN
993.211182	NaN
1020.054749	NaN
1046.898315	NaN
1073.741821	NaN
1100.585327	NaN
1127.428955	NaN
1154.272461	NaN
1181.115967	NaN
1207.959595	NaN
1234.803101	NaN
1261.646606	NaN
1288.490234	NaN
1315.333740	NaN
1342.177246	NaN
1369.020874	NaN
1395.864380	NaN
1422.707886	NaN
1449.551514	NaN
1476.395020	NaN
1503.238525	NaN
1530.082153	NaN
1556.925659	NaN
1583.769165	NaN
1610.612793	NaN
1637.456299	NaN
1664.299805	NaN
1691.143433	NaN
1717.986938	NaN
1771.673950	NaN
1825.361084	NaN
1879.048218	NaN
1932.735229	NaN
1986.422363	NaN
2040.109497	NaN
2093.796631	NaN
2147.483643	NaN
2201.170654	NaN
2254.857910	NaN
2308.544922	NaN
2362.231934	NaN
2415.919189	NaN
2469.606201	NaN
2523.293213	NaN
2576.980469	NaN
2630.667480	NaN
2684.354492	NaN
2738.041748	NaN
2791.728760	NaN
2845.415771	NaN
2899.103027	NaN
2952.790039	NaN
3006.477051	NaN
3060.164307	NaN
3113.851318	NaN
3167.538330	NaN
3221.225586	NaN
3274.912598	NaN
3328.599609	NaN
3382.286865	NaN
3435.973877	NaN
0.000000	NaN
0.000000	NaN
0.000000	NaN
0.000000	NaN
0.000000	NaN
0.000000	NaN
0.000000	NaN
0.000000	NaN
0.000000	NaN
0.000000	NaN
0.000000	NaN
0.000000	NaN
0.000000	NaN
0.000000	NaN
0.000000	NaN
0.000000	NaN
0.000000	NaN
0.000000	NaN
0.000000	NaN
0.000000	NaN
0.000000	NaN
0.000000	NaN
0.000000	NaN
0.000000	NaN
0.000000	NaN
0.000000	NaN
0.000000	NaN
0.000000	NaN
0.000000	NaN
0.000000	NaN
0.000000	NaN
0.000000	NaN

Count Rate History (KHz)  CR CHA / CR CHB
0.000000	91.600418	92.849731
0.104858	82.130432	82.817078
0.209715	85.630417	91.943741
0.314573	74.481964	68.111420
0.419430	91.085434	90.789795
0.524288	80.165863	79.011917
0.629146	75.464249	76.045990
0.734003	76.732635	76.112747
0.838861	103.750229	105.762482
0.943718	75.712204	79.889297
1.048576	168.676376	172.262192
1.153434	141.992569	148.544312
1.258291	108.947754	106.983185
1.363149	84.800720	86.240768
1.468006	83.036423	87.614059
1.572864	95.424652	90.618134
1.677722	96.616745	98.333359
1.782579	64.601898	61.159134
1.887437	80.432892	79.650879
1.992294	114.259720	117.044449
2.097152	82.025528	79.641342
2.202010	74.968338	74.996948
2.306867	73.709488	76.093674
2.411725	86.536407	84.419250
2.516582	99.411011	100.097656
2.621440	83.971024	85.563660
2.726298	79.307556	79.746246
2.831155	77.753067	81.930161
2.936013	79.193115	75.101852
3.040870	79.336166	79.755783
3.145728	80.213547	80.375671
3.250586	76.465607	75.922012
3.355443	73.623657	69.007874
3.460301	81.214905	83.303452
3.565158	108.785629	107.545853
3.670016	77.219009	80.261230
3.774874	74.453354	73.490143
3.879731	76.837540	75.063705
3.984589	94.041824	101.079941
4.089446	102.119446	97.684860
4.194304	100.841522	101.470947
4.299162	77.590942	75.740814
4.404019	80.957413	82.092285
4.508877	78.029633	75.893402
4.613734	80.776215	82.960129
4.718592	72.841644	70.104599
4.823450	69.360733	67.262650
4.928307	90.942383	92.334747
5.033165	77.505112	75.683594
5.138022	80.986023	81.443787
5.242880	80.242157	80.137253
5.347738	86.164474	85.000992
5.452595	102.300644	101.890564
5.557453	81.129074	80.699921
5.662310	89.578629	91.333389
5.767168	81.996918	80.060959
5.872026	72.889328	70.314407
5.976883	87.842941	96.540451
6.081741	103.178024	95.396042
6.186598	88.548660	88.558197
6.291456	95.243454	96.063614
6.396314	95.281601	97.208023
6.501171	94.842911	103.292465
6.606029	97.732544	93.698502
6.710886	99.487305	103.969574
6.815744	102.481842	102.434158
6.920602	85.906982	86.507797
7.025459	100.002289	101.585388
7.130317	76.704025	75.683594
7.235174	82.235336	84.314346
7.340032	88.195801	88.720322
7.444890	84.762573	83.484650
7.549747	82.406998	83.332062
7.654605	84.056854	85.906982
7.759462	98.600388	102.519989
7.864320	83.494186	83.169937
7.969178	119.762421	126.619339
8.074035	106.945038	109.615326
8.178893	84.753036	82.492828
8.283750	78.897476	80.127716
8.388608	100.812912	103.836060
8.493466	83.551407	80.966949
8.598323	70.657730	71.792603
8.703181	74.338913	74.901581
8.808038	90.236664	89.883804
8.912896	74.853897	76.408386
9.017754	88.376999	85.678101
9.122611	123.720169	126.972198
9.227469	79.402924	78.954697
9.332326	78.020096	80.280304
9.437184	76.169968	75.683594
9.542042	89.387894	91.772079
9.646899	88.701248	89.130402
9.751757	90.932846	91.056824
9.856614	103.816986	106.172562
9.961472	71.821213	72.202682
10.066330	74.033737	75.693130
10.171187	81.701279	78.821182
10.276045	89.588165	96.340179
10.380902	78.620911	74.625015
10.485760	78.601837	80.375671
10.590618	96.654892	96.893311
10.695475	86.393356	85.468292
10.800333	80.394745	82.025528
10.905190	94.919205	97.093582
11.010048	105.705261	102.767944
11.114906	86.326599	84.943771
11.219763	115.823746	121.994019
11.324621	80.804825	79.231262
11.429478	114.002228	114.459991
11.534336	97.608566	96.216202
11.639194	99.411011	99.859238
11.744051	95.806122	100.517273
11.848909	76.179504	77.028275
11.953766	107.679367	108.394623
12.058624	102.720261	106.744766
12.163482	80.642700	84.400177
12.268339	89.998245	95.539093
12.373197	90.961456	87.890625
12.478054	102.491379	110.960007
12.582912	91.943741	89.654922
12.687770	96.635818	101.766586
12.792627	85.582733	83.379745
12.897485	80.204010	79.374313
13.002342	84.953308	83.761215
13.107200	95.891953	99.487305
13.212058	83.656311	84.247589
13.316915	87.842941	84.457397
13.421773	98.819733	99.382401
13.526630	97.236633	99.582672
13.631488	82.063675	81.396103
13.736346	72.164536	73.804855
13.841203	85.277557	84.800720
13.946061	71.659088	66.823959
14.050918	75.626373	77.600479
14.155776	99.887848	103.063583
14.260634	81.233978	79.994202
14.365491	73.013306	74.796677
14.470349	95.176697	93.202591
14.575206	86.202621	92.000961
14.680064	98.476410	92.182159
14.784922	84.609985	83.436966
14.889779	116.767883	117.969513
14.994637	139.827728	150.918961
15.099494	106.859207	103.101730
15.204352	101.928711	100.746155
15.309210	86.498260	86.250305
15.414067	73.556900	75.025558
15.518925	85.840225	86.393356
15.623782	80.289841	78.668594
15.728640	79.450607	78.277588
15.833498	88.901520	89.445114
15.938355	103.530884	104.598999
16.043213	101.633072	99.954605
16.148070	84.266663	83.827972
16.252928	85.706711	85.687637
16.357786	101.490021	101.919174
16.462643	72.479248	73.089600
16.567501	75.960159	75.950623
16.672358	101.137161	99.935532
16.777216	92.449188	91.018677
16.882074	101.776123	101.518631
16.986931	92.353821	93.841553
17.091789	92.878342	97.150803
17.196646	78.792572	74.090958
17.301504	95.834732	97.608566
17.406362	71.430206	70.562363
17.511219	83.074570	83.208084
17.616077	78.496933	79.174042
17.720934	96.197128	96.406937
17.825792	93.517303	96.998215
17.930650	99.792480	100.193024
18.035507	85.945129	87.480545
18.140365	108.757019	109.138489
18.245222	105.743408	111.389160
18.350080	101.442337	98.419189
18.454938	85.182190	87.108612
18.559795	77.095032	79.193115
18.664653	84.419250	81.748962
18.769510	81.777573	84.304810
18.874368	80.881119	77.733994
18.979226	97.827911	100.679398
19.084083	88.005066	88.949203
19.188941	93.441010	98.352432
19.293798	85.611343	84.533691
19.398656	75.712204	73.194504
19.503514	82.931519	81.901550
19.608371	82.626343	84.238052
19.713229	88.262558	88.586807
