1/9/2026	8:58 AM
Pseudo Cross Correlation
Scattering angle:	90.0
Duration (s):	20
Wavelength (nm):	632.8
Refractive index:	1.330
Viscosity (mPas):	0.882
Temperature (K):	298.5
Laser intensity (mW):	8.520247
Average Count rate  A (kHz):	75.2
Average Count rate  B (kHz):	75.2
Intercept:	0.8858
Cumulant 1st	150.20
Cumulant 2nd	131.99	46.55
Cumulant 3rd	132.93	43.47

Lag time (s)         g2-1
1.250000E-8	0.925397
2.500000E-8	0.853035
3.750000E-8	0.875736
5.000000E-8	0.923268
6.250000E-8	0.902695
7.500000E-8	0.846650
8.750000E-8	0.882831
1.000000E-7	0.921140
1.125000E-7	0.875736
1.250000E-7	0.867933
1.375000E-7	0.947389
1.500000E-7	0.877155
1.625000E-7	0.909789
1.750000E-7	0.911208
1.875000E-7	0.879284
2.000000E-7	0.823238
2.125000E-7	0.928944
2.250000E-7	0.916174
2.375000E-7	0.855163
2.500000E-7	0.919721
2.625000E-7	0.892763
2.750000E-7	0.883540
2.875000E-7	0.878574
3.000000E-7	0.864385
3.125000E-7	0.844521
3.250000E-7	0.881412
3.375000E-7	0.883540
3.500000E-7	0.892053
3.625000E-7	0.871480
3.750000E-7	0.899857
3.875000E-7	0.914046
4.000000E-7	0.912627
4.125000E-7	0.870770
4.250000E-7	0.874318
4.375000E-7	0.904114
4.500000E-7	0.924687
4.625000E-7	0.897019
4.750000E-7	0.883540
4.875000E-7	0.945261
5.000000E-7	0.815435
5.125000E-7	0.845940
5.250000E-7	0.941714
5.375000E-7	0.859419
5.500000E-7	0.947389
5.625000E-7	0.845231
5.750000E-7	0.812597
5.875000E-7	0.828914
6.000000E-7	0.914755
6.125000E-7	0.872899
6.250000E-7	0.857291
6.375000E-7	0.833171
6.500000E-7	0.901276
6.625000E-7	0.916883
6.750000E-7	0.884250
6.875000E-7	0.847359
7.000000E-7	0.908370
7.125000E-7	0.943132
7.250000E-7	0.849487
7.375000E-7	0.860838
7.500000E-7	0.799827
7.625000E-7	0.977894
7.750000E-7	0.840974
7.875000E-7	0.860129
8.000000E-7	0.908370
8.250000E-7	0.875027
8.500000E-7	0.856582
8.750000E-7	0.897729
9.000000E-7	0.899857
9.250000E-7	0.893117
9.500000E-7	0.947389
9.750000E-7	0.843812
1.000000E-6	0.904823
1.025000E-6	0.888506
1.050000E-6	0.834944
1.075000E-6	0.857646
1.100000E-6	0.856936
1.125000E-6	0.905887
1.150000E-6	0.882476
1.175000E-6	0.942423
1.200000E-6	0.916883
1.225000E-6	0.868287
1.250000E-6	0.849842
1.275000E-6	0.880348
1.300000E-6	0.910144
1.325000E-6	0.901631
1.350000E-6	0.855518
1.375000E-6	0.913691
1.400000E-6	0.901276
1.425000E-6	0.855518
1.450000E-6	0.916883
1.475000E-6	0.882121
1.500000E-6	0.927880
1.525000E-6	0.894891
1.550000E-6	0.897019
1.575000E-6	0.896310
1.600000E-6	0.882831
1.650000E-6	0.844876
1.700000E-6	0.885314
1.750000E-6	0.897019
1.800000E-6	0.897374
1.850000E-6	0.908548
1.900000E-6	0.898261
1.950000E-6	0.908015
2.000000E-6	0.861016
2.050000E-6	0.865272
2.100000E-6	0.886733
2.150000E-6	0.884782
2.200000E-6	0.882121
2.250000E-6	0.856936
2.300000E-6	0.857291
2.350000E-6	0.891699
2.400000E-6	0.894359
2.450000E-6	0.889038
2.500000E-6	0.899857
2.550000E-6	0.886023
2.600000E-6	0.884072
2.650000E-6	0.888683
2.700000E-6	0.861016
2.750000E-6	0.920608
2.800000E-6	0.901808
2.850000E-6	0.879461
2.900000E-6	0.908902
2.950000E-6	0.884250
3.000000E-6	0.868465
3.050000E-6	0.883895
3.100000E-6	0.867755
3.150000E-6	0.885491
3.200000E-6	0.879638
3.300000E-6	0.894182
3.400000E-6	0.871569
3.500000E-6	0.864474
3.600000E-6	0.876446
3.700000E-6	0.873608
3.800000E-6	0.882299
3.900000E-6	0.874850
4.000000E-6	0.868731
4.100000E-6	0.866425
4.200000E-6	0.882210
4.300000E-6	0.872455
4.400000E-6	0.877155
4.500000E-6	0.898350
4.600000E-6	0.870504
4.700000E-6	0.877865
4.800000E-6	0.892497
4.900000E-6	0.927525
5.000000E-6	0.900300
5.100000E-6	0.874938
5.200000E-6	0.878751
5.300000E-6	0.890280
5.400000E-6	0.887885
5.500000E-6	0.877067
5.600000E-6	0.861370
5.700000E-6	0.889570
5.800000E-6	0.889482
5.900000E-6	0.857380
6.000000E-6	0.885136
6.100000E-6	0.878219
6.200000E-6	0.864208
6.300000E-6	0.855518
6.400000E-6	0.893117
6.600000E-6	0.885447
6.800000E-6	0.888063
7.000000E-6	0.873963
7.200000E-6	0.880880
7.400000E-6	0.884383
7.600000E-6	0.869839
7.800000E-6	0.883230
8.000000E-6	0.867356
8.200000E-6	0.886954
8.400000E-6	0.882964
8.600000E-6	0.873120
8.800000E-6	0.880259
9.000000E-6	0.873120
9.200000E-6	0.867445
9.400000E-6	0.878929
9.600000E-6	0.881323
9.800000E-6	0.863676
1.000000E-5	0.887619
1.020000E-5	0.863632
1.040000E-5	0.881190
1.060000E-5	0.865627
1.080000E-5	0.889526
1.100000E-5	0.878397
1.120000E-5	0.867046
1.140000E-5	0.869839
1.160000E-5	0.876756
1.180000E-5	0.867844
1.200000E-5	0.880392
1.220000E-5	0.880392
1.240000E-5	0.872455
1.260000E-5	0.867268
1.280000E-5	0.882387
1.320000E-5	0.858910
1.360000E-5	0.863432
1.400000E-5	0.868709
1.440000E-5	0.861769
1.480000E-5	0.845297
1.520000E-5	0.867800
1.560000E-5	0.870770
1.600000E-5	0.872101
1.640000E-5	0.865228
1.680000E-5	0.875182
1.720000E-5	0.863521
1.760000E-5	0.880148
1.800000E-5	0.856737
1.840000E-5	0.870637
1.880000E-5	0.864297
1.920000E-5	0.857646
1.960000E-5	0.854298
2.000000E-5	0.864097
2.040000E-5	0.857358
2.080000E-5	0.854586
2.120000E-5	0.856693
2.160000E-5	0.865228
2.200000E-5	0.863876
2.240000E-5	0.851594
2.280000E-5	0.857690
2.320000E-5	0.859685
2.360000E-5	0.851660
2.400000E-5	0.858023
2.440000E-5	0.863011
2.480000E-5	0.857557
2.520000E-5	0.850574
2.560000E-5	0.860617
2.640000E-5	0.854886
2.720000E-5	0.849665
2.800000E-5	0.858932
2.880000E-5	0.853212
2.960000E-5	0.855828
3.040000E-5	0.850773
3.120000E-5	0.853068
3.200000E-5	0.845253
3.280000E-5	0.846295
3.360000E-5	0.844555
3.440000E-5	0.848556
3.520000E-5	0.841362
3.600000E-5	0.840010
3.680000E-5	0.844843
3.760000E-5	0.833248
3.840000E-5	0.847182
3.920000E-5	0.833880
4.000000E-5	0.842781
4.080000E-5	0.839688
4.160000E-5	0.837050
4.240000E-5	0.835809
4.320000E-5	0.826752
4.400000E-5	0.834346
4.480000E-5	0.829513
4.560000E-5	0.824070
4.640000E-5	0.830444
4.720000E-5	0.830421
4.800000E-5	0.826553
4.880000E-5	0.833958
4.960000E-5	0.831386
5.040000E-5	0.834534
5.120000E-5	0.834390
5.280000E-5	0.824526
5.440000E-5	0.824865
5.600000E-5	0.826134
5.760000E-5	0.817810
5.920000E-5	0.823336
6.080000E-5	0.815510
6.240000E-5	0.812169
6.400000E-5	0.820038
6.560000E-5	0.812468
6.720000E-5	0.809601
6.880000E-5	0.804414
7.040000E-5	0.811020
7.200000E-5	0.804802
7.360000E-5	0.802635
7.520000E-5	0.803850
7.680000E-5	0.802670
7.840000E-5	0.801000
8.000000E-5	0.790644
8.160000E-5	0.800946
8.320000E-5	0.789857
8.480000E-5	0.792267
8.640000E-5	0.791081
8.800000E-5	0.783556
8.960000E-5	0.787396
9.120000E-5	0.785722
9.280000E-5	0.781666
9.440000E-5	0.783350
9.600000E-5	0.775597
9.760000E-5	0.777908
9.920000E-5	0.776185
0.000101	0.774806
0.000102	0.775848
0.000106	0.771299
0.000109	0.765896
0.000112	0.761160
0.000115	0.761314
0.000118	0.758563
0.000122	0.753685
0.000125	0.753387
0.000128	0.748253
0.000131	0.746456
0.000134	0.736442
0.000138	0.736769
0.000141	0.732794
0.000144	0.732733
0.000147	0.732043
0.000150	0.729827
0.000154	0.724887
0.000157	0.724696
0.000160	0.718279
0.000163	0.716080
0.000166	0.711270
0.000170	0.706820
0.000173	0.705557
0.000176	0.707229
0.000179	0.702696
0.000182	0.701034
0.000186	0.695356
0.000189	0.694432
0.000192	0.693207
0.000195	0.687824
0.000198	0.688606
0.000202	0.683982
0.000205	0.682654
0.000211	0.676774
0.000218	0.671438
0.000224	0.666187
0.000230	0.660765
0.000237	0.652311
0.000243	0.651762
0.000250	0.645548
0.000256	0.636490
0.000262	0.636004
0.000269	0.629168
0.000275	0.623254
0.000282	0.620901
0.000288	0.614356
0.000294	0.609540
0.000301	0.600203
0.000307	0.597211
0.000314	0.593820
0.000320	0.590933
0.000326	0.582087
0.000333	0.580486
0.000339	0.575353
0.000346	0.569697
0.000352	0.565124
0.000358	0.563724
0.000365	0.557883
0.000371	0.553810
0.000378	0.549472
0.000384	0.545498
0.000390	0.539665
0.000397	0.534942
0.000403	0.532686
0.000410	0.528435
0.000422	0.520133
0.000435	0.511868
0.000448	0.505253
0.000461	0.496179
0.000474	0.488854
0.000486	0.481155
0.000499	0.475576
0.000512	0.466251
0.000525	0.458315
0.000538	0.454421
0.000550	0.447438
0.000563	0.439612
0.000576	0.434162
0.000589	0.423792
0.000602	0.417464
0.000614	0.413276
0.000627	0.405507
0.000640	0.399747
0.000653	0.395445
0.000666	0.389063
0.000678	0.382600
0.000691	0.376599
0.000704	0.371861
0.000717	0.366581
0.000730	0.360296
0.000742	0.356067
0.000755	0.350121
0.000768	0.346468
0.000781	0.341612
0.000794	0.335302
0.000806	0.330182
0.000819	0.326679
0.000845	0.318205
0.000870	0.308965
0.000896	0.297664
0.000922	0.290965
0.000947	0.282229
0.000973	0.272603
0.000998	0.265012
0.001024	0.257219
0.001050	0.248443
0.001075	0.242902
0.001101	0.236359
0.001126	0.230280
0.001152	0.225082
0.001178	0.217928
0.001203	0.213715
0.001229	0.207672
0.001254	0.202277
0.001280	0.196814
0.001306	0.191804
0.001331	0.185363
0.001357	0.181443
0.001382	0.177492
0.001408	0.171937
0.001434	0.168276
0.001459	0.164177
0.001485	0.160571
0.001510	0.155174
0.001536	0.152434
0.001562	0.146021
0.001587	0.144090
0.001613	0.141394
0.001638	0.137415
0.001690	0.130176
0.001741	0.124808
0.001792	0.118992
0.001843	0.114349
0.001894	0.108945
0.001946	0.104973
0.001997	0.099581
0.002048	0.095274
0.002099	0.090157
0.002150	0.086456
0.002202	0.081845
0.002253	0.077206
0.002304	0.073599
0.002355	0.068611
0.002406	0.066392
0.002458	0.062915
0.002509	0.059976
0.002560	0.057423
0.002611	0.055272
0.002662	0.052264
0.002714	0.050802
0.002765	0.048968
0.002816	0.046259
0.002867	0.045722
0.002918	0.043794
0.002970	0.041223
0.003021	0.039810
0.003072	0.037932
0.003123	0.037494
0.003174	0.034983
0.003226	0.034592
0.003277	0.033149
0.003379	0.030927
0.003482	0.027614
0.003584	0.026878
0.003686	0.024962
0.003789	0.024587
0.003891	0.023065
0.003994	0.021966
0.004096	0.019840
0.004198	0.019032
0.004301	0.017764
0.004403	0.017296
0.004506	0.016257
0.004608	0.015403
0.004710	0.017028
0.004813	0.018290
0.004915	0.019477
0.005018	0.018927
0.005120	0.018220
0.005222	0.017987
0.005325	0.016721
0.005427	0.015532
0.005530	0.014083
0.005632	0.012804
0.005734	0.012032
0.005837	0.012272
0.005939	0.012015
0.006042	0.010934
0.006144	0.010456
0.006246	0.010160
0.006349	0.010971
0.006451	0.011420
0.006554	0.010911
0.006758	0.010585
0.006963	0.009856
0.007168	0.008849
0.007373	0.007071
0.007578	0.004872
0.007782	0.002019
0.007987	-0.001031
0.008192	-0.002291
0.008397	-0.004916
0.008602	-0.005118
0.008806	-0.003862
0.009011	-0.001595
0.009216	-0.000231
0.009421	0.000698
0.009626	0.002579
0.009830	0.004259
0.010035	0.006226
0.010240	0.006707
0.010445	0.007324
0.010650	0.006955
0.010854	0.003570
0.011059	0.002408
0.011264	0.001756
0.011469	0.001858
0.011674	0.002912
0.011878	0.003849
0.012083	0.005626
0.012288	0.007351
0.012493	0.007671
0.012698	0.009293
0.012902	0.014407
0.013107	0.017595
0.013517	0.018460
0.013926	0.016462
0.014336	0.012502
0.014746	0.009991
0.015155	0.009128
0.015565	0.010027
0.015974	0.009254
0.016384	0.007532
0.016794	0.005246
0.017203	0.004599
0.017613	0.005163
0.018022	0.008052
0.018432	0.013413
0.018842	0.011479
0.019251	0.007515
0.019661	0.008892
0.020070	0.010589
0.020480	0.012121
0.020890	0.011679
0.021299	0.011547
0.021709	0.013967
0.022118	0.010639
0.022528	0.008805
0.022938	0.011525
0.023347	0.013918
0.023757	0.013379
0.024166	0.011377
0.024576	0.010938
0.024986	0.009377
0.025395	0.011191
0.025805	0.013645
0.026214	0.013507
0.027034	0.012867
0.027853	0.015667
0.028672	0.015831
0.029491	0.010044
0.030310	0.005746
0.031130	0.005675
0.031949	0.007119
0.032768	0.009230
0.033587	0.010298
0.034406	0.008758
0.035226	0.007652
0.036045	0.011608
0.036864	0.016372
0.037683	0.011389
0.038502	0.012140
0.039322	0.009248
0.040141	0.006077
0.040960	0.007088
0.041779	0.007536
0.042598	0.008619
0.043418	0.010575
0.044237	0.012356
0.045056	0.011406
0.045875	0.011631
0.046694	0.006519
0.047514	0.004631
0.048333	-0.000772
0.049152	0.003207
0.049971	0.005981
0.050790	0.009875
0.051610	0.007739
0.052429	0.007195
0.054067	0.009409
0.055706	0.012134
0.057344	0.009288
0.058982	0.009640
0.060621	0.007086
0.062259	0.008144
0.063898	0.003982
0.065536	-0.002051
0.067174	0.002460
0.068813	0.006117
0.070451	0.000412
0.072090	0.002661
0.073728	0.005370
0.075366	0.007594
0.077005	0.006356
0.078643	0.009581
0.080282	-0.000501
0.081920	0.004779
0.083558	0.008770
0.085197	0.004855
0.086835	0.005269
0.088474	0.010111
0.090112	0.006982
0.091750	0.007511
0.093389	0.011045
0.095027	0.008115
0.096666	0.010939
0.098304	0.003664
0.099942	0.002333
0.101581	0.003823
0.103219	-0.000523
0.104858	-0.002126
0.108134	0.006605
0.111411	0.006242
0.114688	0.009715
0.117965	0.006645
0.121242	0.012102
0.124518	0.009186
0.127795	0.001256
0.131072	0.009480
0.134349	0.009012
0.137626	0.000764
0.140902	0.004909
0.144179	0.006657
0.147456	0.008526
0.150733	0.006233
0.154010	0.002654
0.157286	0.006132
0.160563	0.001126
0.163840	0.004176
0.167117	0.003695
0.170394	0.011665
0.173670	0.012819
0.176947	0.009665
0.180224	0.006311
0.183501	-0.006256
0.186778	0.002437
0.190054	0.002861
0.193331	-0.003635
0.196608	-0.000372
0.199885	0.004072
0.203162	0.003911
0.206438	0.002034
0.209715	0.004914
0.216269	0.004819
0.222822	-0.006156
0.229376	-0.004297
0.235930	0.005742
0.242483	0.000618
0.249037	7.858207E-5
0.255590	0.007668
0.262144	0.010057
0.268698	0.005089
0.275251	0.006202
0.281805	0.006635
0.288358	0.006628
0.294912	0.002337
0.301466	0.009599
0.308019	0.013310
0.314573	-0.001110
0.321126	0.001596
0.327680	0.009049
0.334234	0.006520
0.340787	-0.003098
0.347341	3.903506E-6
0.353894	0.004296
0.360448	0.003227
0.367002	-0.003414
0.373555	0.008260
0.380109	0.007439
0.386662	-0.000878
0.393216	0.005282
0.399770	-2.599429E-5
0.406323	-0.000146
0.412877	0.004767
0.419430	0.002486
0.432538	-0.002300
0.445645	-0.002630
0.458752	-0.004513
0.471859	0.000853
0.484966	-7.975746E-6
0.498074	-0.002054
0.511181	0.002986
0.524288	0.004711
0.537395	-0.001140
0.550502	0.000279
0.563610	0.004433
0.576717	0.000652
0.589824	-0.002765
0.602931	0.001362
0.616038	0.002315
0.629146	0.001263
0.642253	0.000711
0.655360	-0.002336
0.668467	-0.002889
0.681574	0.001192
0.694682	-0.000858
0.707789	-0.000961
0.720896	0.000682
0.734003	-0.003317
0.747110	-0.000763
0.760218	-0.002587
0.773325	0.000826
0.786432	-0.001075
0.799539	-0.001816
0.812646	-0.002447
0.825754	-0.000235
0.838861	-0.001984
0.865075	-0.000416
0.891290	0.002044
0.917504	-0.000632
0.943718	-0.001590
0.969933	-0.000671
0.996147	-0.001096
1.022362	0.003165
1.048576	0.003384
1.074790	0.002076
1.101005	-0.000841
1.127219	-0.003382
1.153434	-0.001020
1.179648	0.001599
1.205862	0.000951
1.232077	-0.002404
1.258291	-0.001678
1.284506	-0.000887
1.310720	-0.000546
1.336934	-0.000972
1.363149	-0.004263
1.389363	-0.002646
1.415578	-0.000101
1.441792	0.001118
1.468006	0.000129
1.494221	-0.001576
1.520435	-0.001374
1.546650	-0.002518
1.572864	0.002239
1.599078	0.003310
1.625293	-0.001120
1.651507	0.003331
1.677722	-0.001170
1.730150	-0.000331
1.782579	-0.002475
1.835008	-0.002279
1.887437	-0.003151
1.939866	-0.002896
1.992294	0.000642
2.044723	-0.001903
2.097152	-0.003990
2.149581	-0.003161
2.202010	-0.001995
2.254438	-0.003297
2.306867	-0.002324
2.359296	-0.001106
2.411725	5.199884E-5
2.464154	0.000749
2.516582	0.001498
2.569011	0.001044
2.621440	-0.000745
2.673869	0.001029
2.726298	0.002089
2.778726	-0.002295
2.831155	0.001218
2.883584	0.002385
2.936013	-0.000400
2.988442	0.003439
3.040870	0.002279
3.093299	-0.000610
3.145728	-9.179372E-5
3.198157	3.499738E-5
3.250586	0.001840
3.303015	0.003150
3.355443	-0.000911
3.460301	-0.000826
3.565158	0.001653
3.670016	-0.003610
3.774873	-0.000331
3.879731	0.000815
3.984589	0.000852
4.089447	-0.001384
4.194304	-0.001268
4.299161	-0.001666
4.404019	-0.004284
4.508877	-0.001947
4.613734	-0.001336
4.718592	-0.005550
4.823450	-0.001591
4.928307	0.001535
5.033165	0.001280
5.138022	0.000455
5.242880	-0.003352
5.347738	0.000675
5.452595	-9.119371E-6
5.557453	0.001839
5.662311	0.003043
5.767168	-0.002173
5.872025	-0.001580
5.976883	0.004749
6.081741	-0.000647
6.186598	0.000447
6.291456	-0.000308
6.396314	-0.002732
6.501171	0.000946
6.606029	0.001748
6.710886	0.000632
6.920601	-0.002338
7.130317	-0.002329
7.340032	0.000136
7.549747	-8.233362E-5
7.759462	0.000636
7.969178	0.000446
8.178893	-0.000290
8.388608	5.809792E-5
8.598323	-0.000928
8.808039	0.000289
9.017754	-0.000189
9.227468	-0.002496
9.437184	-0.001212
9.646899	-0.002127
9.856614	0.001810
10.066330	-0.002225
10.276045	-0.003254
10.485760	0.002963
10.695476	-0.000699
10.905190	-0.001639
11.114905	-0.001045
11.324621	0.001428
11.534336	0.006286
11.744051	0.000863
11.953767	-0.003376
12.163482	-0.002686
12.373197	-0.000363
12.582912	-0.001498
12.792627	0.000862
13.002342	0.006104
13.212058	0.003740
13.421773	0.004291
13.841203	0.004188
14.260633	0.002835
14.680064	0.004388
15.099494	-0.003837
15.518925	0.000475
15.938355	-0.007579
16.357786	-0.005834
16.777216	0.001305
17.196646	0.002161
17.616077	0.000702
18.035507	0.002014
18.454937	0.002707
18.874369	-0.002256
19.293798	0.000000
19.713228	NaN
20.132660	NaN
20.552090	NaN
20.971519	NaN
21.390951	NaN
21.810381	NaN
22.229811	NaN
22.649242	NaN
23.068672	NaN
23.488102	NaN
23.907534	NaN
24.326963	NaN
24.746393	NaN
25.165825	NaN
25.585255	NaN
26.004684	NaN
26.424116	NaN
26.843546	NaN
27.682405	NaN
28.521267	NaN
29.360128	NaN
30.198988	NaN
31.037849	NaN
31.876711	NaN
32.715572	NaN
33.554432	NaN
34.393291	NaN
35.232155	NaN
36.071014	NaN
36.909874	NaN
37.748737	NaN
38.587597	NaN
39.426456	NaN
40.265320	NaN
41.104179	NaN
41.943039	NaN
42.781902	NaN
43.620762	NaN
44.459621	NaN
45.298485	NaN
46.137344	NaN
46.976204	NaN
47.815067	NaN
48.653927	NaN
49.492786	NaN
50.331650	NaN
51.170509	NaN
52.009369	NaN
52.848232	NaN
53.687092	NaN
55.364811	NaN
57.042534	NaN
58.720257	NaN
60.397976	NaN
62.075699	NaN
63.753422	NaN
65.431145	NaN
67.108864	NaN
68.786583	NaN
70.464310	NaN
72.142029	NaN
73.819748	NaN
75.497475	NaN
77.175194	NaN
78.852913	NaN
80.530640	NaN
82.208359	NaN
83.886078	NaN
85.563805	NaN
87.241524	NaN
88.919243	NaN
90.596970	NaN
92.274689	NaN
93.952408	NaN
95.630135	NaN
97.307854	NaN
98.985573	NaN
100.663300	NaN
102.341019	NaN
104.018738	NaN
105.696465	NaN
107.374184	NaN
110.729622	NaN
114.085068	NaN
117.440514	NaN
120.795952	NaN
124.151398	NaN
127.506844	NaN
130.862289	NaN
134.217728	NaN
137.573166	NaN
140.928619	NaN
144.284058	NaN
147.639496	NaN
150.994949	NaN
154.350388	NaN
157.705826	NaN
161.061279	NaN
164.416718	NaN
167.772156	NaN
171.127609	NaN
174.483047	NaN
177.838486	NaN
181.193939	NaN
184.549377	NaN
187.904816	NaN
191.260269	NaN
194.615707	NaN
197.971146	NaN
201.326599	NaN
204.682037	NaN
208.037476	NaN
211.392929	NaN
214.748367	NaN
221.459244	NaN
228.170135	NaN
234.881027	NaN
241.591904	NaN
248.302795	NaN
255.013687	NaN
261.724579	NaN
268.435455	NaN
275.146332	NaN
281.857239	NaN
288.568115	NaN
295.278992	NaN
301.989899	NaN
308.700775	NaN
315.411652	NaN
322.122559	NaN
328.833435	NaN
335.544312	NaN
342.255219	NaN
348.966095	NaN
355.676971	NaN
362.387878	NaN
369.098755	NaN
375.809631	NaN
382.520538	NaN
389.231415	NaN
395.942291	NaN
402.653198	NaN
409.364075	NaN
416.074951	NaN
422.785858	NaN
429.496735	NaN
442.918488	NaN
456.340271	NaN
469.762054	NaN
483.183807	NaN
496.605591	NaN
510.027374	NaN
523.449158	NaN
536.870911	NaN
550.292664	NaN
563.714478	NaN
577.136230	NaN
590.557983	NaN
603.979797	NaN
617.401550	NaN
630.823303	NaN
644.245117	NaN
657.666870	NaN
671.088623	NaN
684.510437	NaN
697.932190	NaN
711.353943	NaN
724.775757	NaN
738.197510	NaN
751.619263	NaN
765.041077	NaN
778.462830	NaN
791.884583	NaN
805.306396	NaN
818.728149	NaN
832.149902	NaN
845.571716	NaN
858.993469	NaN
885.836975	NaN
912.680542	NaN
939.524109	NaN
966.367615	NaN
993.211182	NaN
1020.054749	NaN
1046.898315	NaN
1073.741821	NaN
1100.585327	NaN
1127.428955	NaN
1154.272461	NaN
1181.115967	NaN
1207.959595	NaN
1234.803101	NaN
1261.646606	NaN
1288.490234	NaN
1315.333740	NaN
1342.177246	NaN
1369.020874	NaN
1395.864380	NaN
1422.707886	NaN
1449.551514	NaN
1476.395020	NaN
1503.238525	NaN
1530.082153	NaN
1556.925659	NaN
1583.769165	NaN
1610.612793	NaN
1637.456299	NaN
1664.299805	NaN
1691.143433	NaN
1717.986938	NaN
1771.673950	NaN
1825.361084	NaN
1879.048218	NaN
1932.735229	NaN
1986.422363	NaN
2040.109497	NaN
2093.796631	NaN
2147.483643	NaN
2201.170654	NaN
2254.857910	NaN
2308.544922	NaN
2362.231934	NaN
2415.919189	NaN
2469.606201	NaN
2523.293213	NaN
2576.980469	NaN
2630.667480	NaN
2684.354492	NaN
2738.041748	NaN
2791.728760	NaN
2845.415771	NaN
2899.103027	NaN
2952.790039	NaN
3006.477051	NaN
3060.164307	NaN
3113.851318	NaN
3167.538330	NaN
3221.225586	NaN
3274.912598	NaN
3328.599609	NaN
3382.286865	NaN
3435.973877	NaN
0.000000	NaN
0.000000	NaN
0.000000	NaN
0.000000	NaN
0.000000	NaN
0.000000	NaN
0.000000	NaN
0.000000	NaN
0.000000	NaN
0.000000	NaN
0.000000	NaN
0.000000	NaN
0.000000	NaN
0.000000	NaN
0.000000	NaN
0.000000	NaN
0.000000	NaN
0.000000	NaN
0.000000	NaN
0.000000	NaN
0.000000	NaN
0.000000	NaN
0.000000	NaN
0.000000	NaN
0.000000	NaN
0.000000	NaN
0.000000	NaN
0.000000	NaN
0.000000	NaN
0.000000	NaN
0.000000	NaN
0.000000	NaN

Count Rate History (KHz)  CR CHA / CR CHB
0.000000	65.975189	69.074631
0.104858	79.278946	80.041885
0.209715	69.408417	71.477890
0.314573	62.894821	57.630539
0.419430	57.935715	60.606003
0.524288	62.036514	62.475204
0.629146	75.941086	74.052811
0.734003	52.928925	52.757263
0.838861	72.126389	72.021484
0.943718	84.972382	84.238052
1.048576	75.082779	75.254440
1.153434	70.295334	70.629120
1.258291	62.828064	61.426163
1.363149	63.161850	64.678192
1.468006	65.984726	65.755844
1.572864	77.629089	77.590942
1.677722	63.657761	61.855316
1.782579	74.958801	79.431534
1.887437	89.712143	87.032318
1.992294	88.472366	91.362000
2.097152	70.714951	70.791245
2.202010	64.296722	62.427521
2.306867	84.161758	83.818436
2.411725	81.386566	81.386566
2.516582	76.589584	78.754425
2.621440	97.484589	100.336075
2.726298	72.631836	71.134567
2.831155	74.319839	76.036453
2.936013	84.590912	82.693100
3.040870	83.646774	85.315704
3.145728	88.376999	94.537735
3.250586	70.333481	66.041946
3.355443	85.630417	88.338852
3.460301	85.964203	90.618134
3.565158	92.000961	94.165802
3.670016	68.883896	65.078735
3.774874	72.212219	72.412491
3.879731	75.159073	78.182220
3.984589	89.950562	88.405609
4.089446	73.451996	72.145462
4.194304	73.280334	77.152252
4.299162	74.968338	71.191788
4.404019	60.214996	60.586929
4.508877	58.736801	61.988831
4.613734	80.537796	75.960159
4.718592	72.774887	73.947906
4.823450	92.210770	94.432831
4.928307	77.743530	78.506470
5.033165	91.876984	91.152191
5.138022	76.446533	77.848434
5.242880	69.131851	72.002411
5.347738	73.280334	71.783066
5.452595	64.697266	65.937042
5.557453	95.176697	93.908310
5.662310	60.319901	61.950684
5.767168	70.743561	70.142746
5.872026	83.589554	85.477829
5.976883	79.879761	82.111359
6.081741	68.149567	65.155029
6.186598	83.198547	82.654953
6.291456	65.574646	67.024231
6.396314	71.220398	66.699982
6.501171	85.773468	86.507797
6.606029	82.683563	91.009140
6.710886	79.727173	75.092316
6.815744	72.221756	69.198608
6.920602	74.901581	76.427460
7.025459	72.555542	71.640015
7.130317	77.648163	78.392029
7.235174	69.923401	70.028305
7.340032	64.105988	65.326691
7.444890	72.841644	75.397491
7.549747	79.488754	76.141357
7.654605	65.002441	65.088272
7.759462	73.814392	73.595047
7.864320	69.437027	68.435669
7.969178	80.108643	79.021454
8.074035	79.917908	80.232620
8.178893	63.867569	60.949326
8.283750	77.571869	76.208115
8.388608	65.441132	68.035126
8.493466	83.885193	84.218979
8.598323	82.788467	85.449219
8.703181	65.507889	64.678192
8.808038	71.763992	69.789886
8.912896	83.332062	83.074570
9.017754	76.417923	73.747635
9.122611	75.244904	75.693130
9.227469	58.193207	55.980682
9.332326	79.698563	79.984665
9.437184	62.274933	63.037872
9.542042	65.555573	61.378479
9.646899	72.154999	72.746277
9.751757	88.243484	92.859268
9.856614	73.213577	69.255829
9.961472	68.807602	68.473816
10.066330	70.409775	70.152283
10.171187	70.943832	69.313049
10.276045	67.548752	67.796707
10.380902	83.103180	85.515976
10.485760	99.773407	99.363327
10.590618	65.174103	64.458847
10.695475	69.122314	66.909790
10.800333	94.776154	94.928741
10.905190	65.174103	66.099167
11.010048	89.139938	90.532303
11.114906	76.951981	80.327988
11.219763	58.240891	55.446625
11.324621	88.291168	89.845657
11.429478	72.708130	72.183609
11.534336	88.129044	88.148117
11.639194	69.503784	66.337585
11.744051	71.153641	72.212219
11.848909	65.021515	64.945221
11.953766	64.306259	61.130524
12.058624	54.779053	54.302216
12.163482	78.802109	78.401566
12.268339	63.962936	67.033768
12.373197	78.468323	74.300766
12.478054	70.562363	70.962906
12.582912	88.701248	89.340210
12.687770	58.794022	59.022903
12.792627	62.913895	59.852600
12.897485	74.911118	74.214935
13.002342	70.667267	69.913864
13.107200	87.308884	88.005066
13.212058	76.570511	73.432922
13.316915	74.043274	75.931549
13.421773	67.653656	69.169998
13.526630	76.274872	72.107315
13.631488	67.644119	68.073273
13.736346	67.281723	66.776276
13.841203	69.465637	68.397522
13.946061	74.214935	76.160431
14.050918	77.438354	74.825287
14.155776	81.787109	81.472397
14.260634	64.935684	68.979263
14.365491	77.095032	74.300766
14.470349	64.811707	65.402985
14.575206	68.111420	67.129135
14.680064	73.728561	76.942444
14.784922	72.221756	68.502426
14.889779	66.585541	61.502457
14.994637	71.630478	72.011948
15.099494	62.427521	63.600540
15.204352	68.426132	64.334869
15.309210	67.453384	69.198608
15.414067	78.706741	83.675385
15.518925	66.871643	67.481995
15.623782	84.037781	83.160400
15.728640	61.731339	62.017441
15.833498	68.264008	70.476532
15.938355	69.780350	70.381165
16.043213	72.755814	72.689056
16.148070	75.139999	74.701309
16.252928	57.983398	56.362152
16.357786	105.819702	109.300613
16.462643	141.210556	148.029327
16.567501	94.089508	99.878311
16.672358	119.438171	118.188858
16.777216	85.287094	84.209442
16.882074	79.154968	80.757141
16.986931	100.145340	105.037689
17.091789	84.657669	81.148148
17.196646	61.502457	60.319901
17.301504	65.488815	62.808990
17.406362	64.926147	66.061020
17.511219	89.464188	87.642670
17.616077	72.860718	75.941086
17.720934	76.303482	74.672699
17.825792	72.727203	76.417923
17.930650	81.424713	78.725815
18.035507	63.161850	63.953400
18.140365	90.847015	94.375610
18.245222	76.131821	76.217651
18.350080	78.802109	72.784424
18.454938	75.635910	73.366165
18.559795	68.464279	69.799423
18.664653	79.984665	76.055527
18.769510	60.329437	58.126450
18.874368	64.563751	62.456131
18.979226	76.475143	77.018738
19.084083	74.443817	74.672699
19.188941	94.766617	93.555450
19.293798	68.826675	68.044662
19.398656	92.535019	94.518661
19.503514	76.017380	77.075958
19.608371	97.999573	94.985962
19.713229	89.101791	88.567734
19.818086	61.426163	63.848495
