1/9/2026	9:05 AM
Pseudo Cross Correlation
Scattering angle:	130.0
Duration (s):	20
Wavelength (nm):	632.8
Refractive index:	1.330
Viscosity (mPas):	0.882
Temperature (K):	298.5
Laser intensity (mW):	8.540138
Average Count rate  A (kHz):	69.4
Average Count rate  B (kHz):	68.0
Intercept:	0.7594
Cumulant 1st	121.69
Cumulant 2nd	120.88	10.93
Cumulant 3rd	116.07	41.86

Lag time (s)         g2-1
1.250000E-8	0.800740
2.500000E-8	0.688781
3.750000E-8	0.750315
5.000000E-8	0.776809
6.250000E-8	0.691345
7.500000E-8	0.734077
8.750000E-8	0.768263
1.000000E-7	0.766554
1.125000E-7	0.714420
1.250000E-7	0.761426
1.375000E-7	0.763990
1.500000E-7	0.772536
1.625000E-7	0.819542
1.750000E-7	0.723821
1.875000E-7	0.786211
2.000000E-7	0.809286
2.125000E-7	0.804158
2.250000E-7	0.711002
2.375000E-7	0.754589
2.500000E-7	0.744333
2.625000E-7	0.742624
2.750000E-7	0.780228
2.875000E-7	0.699891
3.000000E-7	0.715275
3.125000E-7	0.784501
3.250000E-7	0.784501
3.375000E-7	0.780228
3.500000E-7	0.791338
3.625000E-7	0.758007
3.750000E-7	0.695618
3.875000E-7	0.781083
4.000000E-7	0.819542
4.125000E-7	0.764844
4.250000E-7	0.715275
4.375000E-7	0.830652
4.500000E-7	0.723821
4.625000E-7	0.698182
4.750000E-7	0.777664
4.875000E-7	0.754589
5.000000E-7	0.799885
5.125000E-7	0.687072
5.250000E-7	0.733222
5.375000E-7	0.800740
5.500000E-7	0.752879
5.625000E-7	0.793902
5.750000E-7	0.701601
5.875000E-7	0.782792
6.000000E-7	0.697327
6.125000E-7	0.713566
6.250000E-7	0.746897
6.375000E-7	0.730659
6.500000E-7	0.746897
6.625000E-7	0.842617
6.750000E-7	0.703310
6.875000E-7	0.794757
7.000000E-7	0.711856
7.125000E-7	0.800740
7.250000E-7	0.700746
7.375000E-7	0.752025
7.500000E-7	0.766554
7.625000E-7	0.771682
7.750000E-7	0.736641
7.875000E-7	0.735786
8.000000E-7	0.693909
8.250000E-7	0.778091
8.500000E-7	0.734077
8.750000E-7	0.788774
9.000000E-7	0.787065
9.250000E-7	0.743906
9.500000E-7	0.758862
9.750000E-7	0.745188
1.000000E-6	0.790056
1.025000E-6	0.801594
1.050000E-6	0.757153
1.075000E-6	0.761426
1.100000E-6	0.776809
1.125000E-6	0.739205
1.150000E-6	0.782792
1.175000E-6	0.794757
1.200000E-6	0.828516
1.225000E-6	0.758435
1.250000E-6	0.723394
1.275000E-6	0.782365
1.300000E-6	0.797321
1.325000E-6	0.791338
1.350000E-6	0.723821
1.375000E-6	0.748179
1.400000E-6	0.763562
1.425000E-6	0.742624
1.450000E-6	0.762708
1.475000E-6	0.813987
1.500000E-6	0.784501
1.525000E-6	0.827661
1.550000E-6	0.743051
1.575000E-6	0.746469
1.600000E-6	0.737068
1.650000E-6	0.778946
1.700000E-6	0.747538
1.750000E-6	0.766126
1.800000E-6	0.783433
1.850000E-6	0.747324
1.900000E-6	0.778732
1.950000E-6	0.748179
2.000000E-6	0.760785
2.050000E-6	0.763562
2.100000E-6	0.780442
2.150000E-6	0.750315
2.200000E-6	0.798817
2.250000E-6	0.794971
2.300000E-6	0.745615
2.350000E-6	0.771468
2.400000E-6	0.793475
2.450000E-6	0.757366
2.500000E-6	0.739419
2.550000E-6	0.783219
2.600000E-6	0.709079
2.650000E-6	0.776596
2.700000E-6	0.769759
2.750000E-6	0.758435
2.800000E-6	0.791125
2.850000E-6	0.752452
2.900000E-6	0.747965
2.950000E-6	0.746683
3.000000E-6	0.765272
3.050000E-6	0.755443
3.100000E-6	0.748392
3.150000E-6	0.748606
3.200000E-6	0.747324
3.300000E-6	0.748927
3.400000E-6	0.772323
3.500000E-6	0.751597
3.600000E-6	0.751597
3.700000E-6	0.748392
3.800000E-6	0.758328
3.900000E-6	0.767088
4.000000E-6	0.764203
4.100000E-6	0.745401
4.200000E-6	0.774352
4.300000E-6	0.770827
4.400000E-6	0.753627
4.500000E-6	0.752773
4.600000E-6	0.737282
4.700000E-6	0.780014
4.800000E-6	0.758114
4.900000E-6	0.753734
5.000000E-6	0.774459
5.100000E-6	0.738030
5.200000E-6	0.745615
5.300000E-6	0.746897
5.400000E-6	0.753841
5.500000E-6	0.750850
5.600000E-6	0.751918
5.700000E-6	0.755550
5.800000E-6	0.722326
5.900000E-6	0.754802
6.000000E-6	0.740807
6.100000E-6	0.726706
6.200000E-6	0.746683
6.300000E-6	0.734718
6.400000E-6	0.751811
6.600000E-6	0.744493
6.800000E-6	0.750903
7.000000E-6	0.745722
7.200000E-6	0.763242
7.400000E-6	0.741822
7.600000E-6	0.746309
7.800000E-6	0.745134
8.000000E-6	0.742730
8.200000E-6	0.766928
8.400000E-6	0.748499
8.600000E-6	0.736214
8.800000E-6	0.736801
9.000000E-6	0.745027
9.200000E-6	0.741448
9.400000E-6	0.727454
9.600000E-6	0.730712
9.800000E-6	0.749781
1.000000E-5	0.733116
1.020000E-5	0.742143
1.040000E-5	0.731513
1.060000E-5	0.733757
1.080000E-5	0.748606
1.100000E-5	0.739686
1.120000E-5	0.755283
1.140000E-5	0.738404
1.160000E-5	0.744653
1.180000E-5	0.739365
1.200000E-5	0.754108
1.220000E-5	0.739686
1.240000E-5	0.746683
1.260000E-5	0.714474
1.280000E-5	0.716664
1.320000E-5	0.730819
1.360000E-5	0.732368
1.400000E-5	0.729083
1.440000E-5	0.725691
1.480000E-5	0.722726
1.520000E-5	0.735119
1.560000E-5	0.739846
1.600000E-5	0.740861
1.640000E-5	0.726038
1.680000E-5	0.733116
1.720000E-5	0.733757
1.760000E-5	0.714554
1.800000E-5	0.724329
1.840000E-5	0.730632
1.880000E-5	0.706889
1.920000E-5	0.727614
1.960000E-5	0.720536
2.000000E-5	0.713993
2.040000E-5	0.726572
2.080000E-5	0.716904
2.120000E-5	0.721044
2.160000E-5	0.720563
2.200000E-5	0.732368
2.240000E-5	0.717251
2.280000E-5	0.731967
2.320000E-5	0.708678
2.360000E-5	0.700559
2.400000E-5	0.706007
2.440000E-5	0.714794
2.480000E-5	0.711376
2.520000E-5	0.717732
2.560000E-5	0.715462
2.640000E-5	0.720389
2.720000E-5	0.707904
2.800000E-5	0.703884
2.880000E-5	0.704792
2.960000E-5	0.703390
3.040000E-5	0.708171
3.120000E-5	0.694870
3.200000E-5	0.698008
3.280000E-5	0.707303
3.360000E-5	0.699451
3.440000E-5	0.708197
3.520000E-5	0.694697
3.600000E-5	0.695030
3.680000E-5	0.690490
3.760000E-5	0.691906
3.840000E-5	0.695071
3.920000E-5	0.694817
4.000000E-5	0.692480
4.080000E-5	0.688954
4.160000E-5	0.691692
4.240000E-5	0.676696
4.320000E-5	0.687793
4.400000E-5	0.675147
4.480000E-5	0.676495
4.560000E-5	0.679500
4.640000E-5	0.669378
4.720000E-5	0.678071
4.800000E-5	0.679901
4.880000E-5	0.674479
4.960000E-5	0.671100
5.040000E-5	0.676215
5.120000E-5	0.673691
5.280000E-5	0.665765
5.440000E-5	0.664776
5.600000E-5	0.656237
5.760000E-5	0.659776
5.920000E-5	0.650749
6.080000E-5	0.656191
6.240000E-5	0.651190
6.400000E-5	0.650277
6.560000E-5	0.645184
6.720000E-5	0.647061
6.880000E-5	0.642147
7.040000E-5	0.639938
7.200000E-5	0.639858
7.360000E-5	0.641088
7.520000E-5	0.638143
7.680000E-5	0.622746
7.840000E-5	0.627786
8.000000E-5	0.621803
8.160000E-5	0.624960
8.320000E-5	0.619266
8.480000E-5	0.617096
8.640000E-5	0.619293
8.800000E-5	0.609839
8.960000E-5	0.613544
9.120000E-5	0.603449
9.280000E-5	0.606713
9.440000E-5	0.602433
9.600000E-5	0.601305
9.760000E-5	0.600817
9.920000E-5	0.591016
0.000101	0.593754
0.000102	0.596921
0.000106	0.588026
0.000109	0.581539
0.000112	0.582779
0.000115	0.576676
0.000118	0.570367
0.000122	0.568193
0.000125	0.565033
0.000128	0.560477
0.000131	0.551449
0.000134	0.549766
0.000138	0.545174
0.000141	0.543314
0.000144	0.539822
0.000147	0.534008
0.000150	0.527016
0.000154	0.530461
0.000157	0.518273
0.000160	0.517248
0.000163	0.515914
0.000166	0.509668
0.000170	0.504953
0.000173	0.501459
0.000176	0.500340
0.000179	0.497578
0.000182	0.493302
0.000186	0.489392
0.000189	0.485853
0.000192	0.482968
0.000195	0.477921
0.000198	0.474332
0.000202	0.472360
0.000205	0.467145
0.000211	0.462851
0.000218	0.454250
0.000224	0.450583
0.000230	0.441019
0.000237	0.436827
0.000243	0.428546
0.000250	0.422149
0.000256	0.417469
0.000262	0.410971
0.000269	0.401992
0.000275	0.397927
0.000282	0.390822
0.000288	0.385672
0.000294	0.382217
0.000301	0.374143
0.000307	0.370866
0.000314	0.367904
0.000320	0.358362
0.000326	0.353787
0.000333	0.349115
0.000339	0.342266
0.000346	0.342490
0.000352	0.332447
0.000358	0.328141
0.000365	0.323275
0.000371	0.320617
0.000378	0.312629
0.000384	0.306538
0.000390	0.303734
0.000397	0.303114
0.000403	0.296161
0.000410	0.293040
0.000422	0.282249
0.000435	0.276463
0.000448	0.266386
0.000461	0.259580
0.000474	0.251676
0.000486	0.246689
0.000499	0.237406
0.000512	0.231246
0.000525	0.222580
0.000538	0.217272
0.000550	0.209792
0.000563	0.205087
0.000576	0.199957
0.000589	0.193046
0.000602	0.186444
0.000614	0.179956
0.000627	0.176494
0.000640	0.172071
0.000653	0.164157
0.000666	0.163446
0.000678	0.156370
0.000691	0.151407
0.000704	0.149186
0.000717	0.143346
0.000730	0.138536
0.000742	0.133469
0.000755	0.131389
0.000768	0.124727
0.000781	0.122874
0.000794	0.118605
0.000806	0.117543
0.000819	0.113514
0.000845	0.106664
0.000870	0.099401
0.000896	0.093069
0.000922	0.086895
0.000947	0.081593
0.000973	0.076854
0.000998	0.072507
0.001024	0.069227
0.001050	0.065741
0.001075	0.061269
0.001101	0.057916
0.001126	0.055262
0.001152	0.052178
0.001178	0.047667
0.001203	0.044356
0.001229	0.041487
0.001254	0.040229
0.001280	0.038523
0.001306	0.035511
0.001331	0.033705
0.001357	0.030691
0.001382	0.028664
0.001408	0.025988
0.001434	0.026002
0.001459	0.025610
0.001485	0.023298
0.001510	0.022981
0.001536	0.021183
0.001562	0.021080
0.001587	0.019342
0.001613	0.018937
0.001638	0.017018
0.001690	0.016934
0.001741	0.014853
0.001792	0.013125
0.001843	0.012150
0.001894	0.011447
0.001946	0.010767
0.001997	0.010812
0.002048	0.009884
0.002099	0.009345
0.002150	0.008697
0.002202	0.005873
0.002253	0.004779
0.002304	0.004104
0.002355	0.004018
0.002406	0.003377
0.002458	0.001038
0.002509	-0.000258
0.002560	-0.000690
0.002611	-0.001351
0.002662	-0.001232
0.002714	-0.001609
0.002765	-0.001344
0.002816	-0.001337
0.002867	-0.002343
0.002918	-0.001392
0.002970	-0.001569
0.003021	-0.000879
0.003072	-0.000745
0.003123	-0.000137
0.003174	-7.424683E-5
0.003226	-0.001073
0.003277	-0.001097
0.003379	-0.000999
0.003482	0.000151
0.003584	0.000147
0.003686	0.000672
0.003789	0.000236
0.003891	-0.001393
0.003994	8.727788E-5
0.004096	0.000728
0.004198	0.000873
0.004301	0.000198
0.004403	0.000505
0.004506	0.000960
0.004608	0.001257
0.004710	0.001796
0.004813	0.001167
0.004915	0.001105
0.005018	0.000852
0.005120	0.002181
0.005222	0.002997
0.005325	0.002656
0.005427	0.002592
0.005530	0.000704
0.005632	-0.000456
0.005734	-0.001666
0.005837	-0.000550
0.005939	-0.000544
0.006042	-0.001695
0.006144	-0.002427
0.006246	-0.001482
0.006349	-0.001667
0.006451	-0.001824
0.006554	-0.001166
0.006758	0.001668
0.006963	0.003454
0.007168	0.004790
0.007373	0.005238
0.007578	0.005519
0.007782	0.003764
0.007987	0.001392
0.008192	0.001567
0.008397	0.000730
0.008602	-0.000883
0.008806	-0.001801
0.009011	-0.003641
0.009216	-0.004579
0.009421	-0.003567
0.009626	-0.002177
0.009830	-0.001606
0.010035	-0.000502
0.010240	0.000223
0.010445	5.625695E-5
0.010650	-0.002076
0.010854	-0.003156
0.011059	-0.001539
0.011264	0.000424
0.011469	0.001821
0.011674	0.002099
0.011878	0.000441
0.012083	0.002127
0.012288	0.002847
0.012493	0.002965
0.012698	0.002658
0.012902	0.003692
0.013107	0.002391
0.013517	0.002809
0.013926	-0.000847
0.014336	-0.002804
0.014746	-0.001534
0.015155	-0.001245
0.015565	0.002398
0.015974	0.005295
0.016384	0.003705
0.016794	0.000950
0.017203	0.000240
0.017613	-0.001461
0.018022	-0.003710
0.018432	-0.001288
0.018842	0.002075
0.019251	0.005529
0.019661	0.003148
0.020070	0.003778
0.020480	0.000187
0.020890	-0.000478
0.021299	0.001253
0.021709	0.003163
0.022118	-0.000371
0.022528	-0.000495
0.022938	0.000451
0.023347	-0.002077
0.023757	-0.004182
0.024166	-0.002733
0.024576	-0.002184
0.024986	-0.003346
0.025395	-0.004997
0.025805	-0.005501
0.026214	-0.001815
0.027034	0.001790
0.027853	0.000439
0.028672	-9.051710E-5
0.029491	0.003469
0.030310	0.002368
0.031130	0.005011
0.031949	-0.002206
0.032768	-0.005034
0.033587	0.001051
0.034406	0.001854
0.035226	0.002723
0.036045	-0.001055
0.036864	0.004663
0.037683	-0.000988
0.038502	0.002810
0.039322	0.000851
0.040141	0.001715
0.040960	0.000383
0.041779	0.003102
0.042598	0.003693
0.043418	0.000736
0.044237	-0.002024
0.045056	-0.001093
0.045875	0.001237
0.046694	0.000841
0.047514	0.000216
0.048333	0.004670
0.049152	0.001749
0.049971	0.000998
0.050790	-0.003505
0.051610	-0.001111
0.052429	0.002188
0.054067	0.002845
0.055706	-0.001999
0.057344	0.005115
0.058982	0.000918
0.060621	0.001940
0.062259	0.002028
0.063898	0.000315
0.065536	-0.002753
0.067174	-0.004186
0.068813	0.003857
0.070451	0.007302
0.072090	-0.001663
0.073728	-0.001989
0.075366	0.000418
0.077005	-0.001345
0.078643	-0.002621
0.080282	0.001344
0.081920	-0.002351
0.083558	0.000505
0.085197	0.006060
0.086835	0.002387
0.088474	-0.002404
0.090112	-0.005299
0.091750	-0.001640
0.093389	6.257641E-5
0.095027	-0.001466
0.096666	-0.002949
0.098304	-0.003045
0.099942	-0.000114
0.101581	0.001232
0.103219	0.003300
0.104858	0.001532
0.108134	0.002586
0.111411	-0.002142
0.114688	-7.601534E-6
0.117965	0.002568
0.121242	0.001820
0.124518	0.000220
0.127795	0.004189
0.131072	0.002428
0.134349	0.002728
0.137626	0.001950
0.140902	0.002466
0.144179	0.000558
0.147456	-0.000574
0.150733	-0.003205
0.154010	0.001036
0.157286	-0.000572
0.160563	0.003572
0.163840	0.002564
0.167117	0.003032
0.170394	0.001076
0.173670	-0.001146
0.176947	-0.002015
0.180224	0.001108
0.183501	8.019000E-5
0.186778	-0.001947
0.190054	0.001784
0.193331	-0.003028
0.196608	-0.002672
0.199885	0.001525
0.203162	0.003004
0.206438	0.001480
0.209715	-0.001832
0.216269	0.001471
0.222822	-0.001428
0.229376	0.002113
0.235930	0.004370
0.242483	-0.002727
0.249037	0.001667
0.255590	0.000942
0.262144	0.000270
0.268698	0.001677
0.275251	-0.000661
0.281805	-0.003944
0.288358	-0.001660
0.294912	0.000311
0.301466	-6.446945E-5
0.308019	-0.002249
0.314573	0.000624
0.321126	0.000103
0.327680	0.000387
0.334234	0.001882
0.340787	-0.002093
0.347341	-0.001877
0.353894	0.001384
0.360448	0.002148
0.367002	0.001102
0.373555	0.002164
0.380109	0.002310
0.386662	-0.001921
0.393216	0.002895
0.399770	0.001315
0.406323	0.001176
0.412877	-0.001770
0.419430	-9.636107E-5
0.432538	0.000962
0.445645	-0.000645
0.458752	-0.000573
0.471859	-0.000523
0.484966	-0.001566
0.498074	0.000303
0.511181	-0.000674
0.524288	-0.001690
0.537395	0.001980
0.550502	0.000960
0.563610	0.000953
0.576717	0.000792
0.589824	0.000588
0.602931	-0.000498
0.616038	0.000856
0.629146	-0.001369
0.642253	-0.002046
0.655360	-6.239062E-5
0.668467	0.000194
0.681574	-0.002007
0.694682	-0.000933
0.707789	-0.000496
0.720896	0.000236
0.734003	-0.001767
0.747110	6.267976E-5
0.760218	-0.000253
0.773325	0.001049
0.786432	0.000122
0.799539	-0.001055
0.812646	-0.002028
0.825754	-0.000670
0.838861	0.000234
0.865075	-0.000554
0.891290	-0.000950
0.917504	-0.001356
0.943718	0.000230
0.969933	-0.000106
0.996147	-0.000900
1.022362	-0.000714
1.048576	-0.002092
1.074790	-0.002763
1.101005	0.000143
1.127219	-0.001239
1.153434	-0.001020
1.179648	-0.000205
1.205862	-0.000679
1.232077	0.001139
1.258291	-0.001430
1.284506	-0.000883
1.310720	0.000807
1.336934	-8.884355E-5
1.363149	-0.000790
1.389363	-0.001941
1.415578	-0.000374
1.441792	-0.000339
1.468006	-7.074717E-5
1.494221	-0.000749
1.520435	0.000174
1.546650	0.000675
1.572864	-0.000635
1.599078	-0.000240
1.625293	0.000731
1.651507	-0.001473
1.677722	-3.201973E-5
1.730150	-8.524778E-5
1.782579	-4.024701E-5
1.835008	-0.000179
1.887437	0.001045
1.939866	0.001009
1.992294	1.074279E-5
2.044723	-0.000123
2.097152	-0.000300
2.149581	0.001548
2.202010	0.000447
2.254438	-0.000396
2.306867	0.002324
2.359296	-0.000457
2.411725	0.000498
2.464154	-0.000799
2.516582	0.000349
2.569011	0.000811
2.621440	-0.001116
2.673869	0.000896
2.726298	0.001020
2.778726	0.000550
2.831155	-4.410203E-5
2.883584	0.000707
2.936013	0.000179
2.988442	-0.001060
3.040870	-0.000759
3.093299	-0.000129
3.145728	-0.000325
3.198157	-0.000592
3.250586	-0.000637
3.303015	-0.000432
3.355443	-0.001486
3.460301	-0.000847
3.565158	-0.000965
3.670016	-0.000516
3.774873	-0.000378
3.879731	-0.000270
3.984589	-0.000545
4.089447	0.000394
4.194304	0.001116
4.299161	0.000304
4.404019	0.000983
4.508877	0.000529
4.613734	-0.000365
4.718592	-0.000258
4.823450	0.000833
4.928307	-0.000577
5.033165	0.001013
5.138022	0.000407
5.242880	0.000110
5.347738	-3.463848E-5
5.452595	-0.000366
5.557453	-0.000166
5.662311	0.000529
5.767168	0.000913
5.872025	-0.000175
5.976883	-0.000243
6.081741	-0.000225
6.186598	-0.000624
6.291456	-0.000708
6.396314	6.339067E-5
6.501171	0.000133
6.606029	1.284843E-5
6.710886	-0.000172
6.920601	-0.000279
7.130317	-4.867989E-5
7.340032	0.000340
7.549747	-0.000214
7.759462	-7.110836E-5
7.969178	-0.000197
8.178893	8.677911E-5
8.388608	7.482692E-5
8.598323	0.000694
8.808039	-0.000261
9.017754	-0.001019
9.227468	-0.000159
9.437184	0.000520
9.646899	-0.000823
9.856614	0.000259
10.066330	0.000886
10.276045	0.000225
10.485760	0.000211
10.695476	0.000255
10.905190	-0.000631
11.114905	-0.001377
11.324621	-0.000614
11.534336	-0.000175
11.744051	0.000294
11.953767	-0.000279
12.163482	0.000318
12.373197	0.000864
12.582912	0.000766
12.792627	-0.000339
13.002342	6.685453E-5
13.212058	-0.000502
13.421773	-0.001455
13.841203	-0.000634
14.260633	0.001144
14.680064	0.000623
15.099494	-7.826764E-5
15.518925	-0.000772
15.938355	-0.000525
16.357786	-0.000100
16.777216	0.000506
17.196646	-0.000281
17.616077	-0.001132
18.035507	-0.000438
18.454937	0.000298
18.874369	0.000000
19.293798	NaN
19.713228	NaN
20.132660	NaN
20.552090	NaN
20.971519	NaN
21.390951	NaN
21.810381	NaN
22.229811	NaN
22.649242	NaN
23.068672	NaN
23.488102	NaN
23.907534	NaN
24.326963	NaN
24.746393	NaN
25.165825	NaN
25.585255	NaN
26.004684	NaN
26.424116	NaN
26.843546	NaN
27.682405	NaN
28.521267	NaN
29.360128	NaN
30.198988	NaN
31.037849	NaN
31.876711	NaN
32.715572	NaN
33.554432	NaN
34.393291	NaN
35.232155	NaN
36.071014	NaN
36.909874	NaN
37.748737	NaN
38.587597	NaN
39.426456	NaN
40.265320	NaN
41.104179	NaN
41.943039	NaN
42.781902	NaN
43.620762	NaN
44.459621	NaN
45.298485	NaN
46.137344	NaN
46.976204	NaN
47.815067	NaN
48.653927	NaN
49.492786	NaN
50.331650	NaN
51.170509	NaN
52.009369	NaN
52.848232	NaN
53.687092	NaN
55.364811	NaN
57.042534	NaN
58.720257	NaN
60.397976	NaN
62.075699	NaN
63.753422	NaN
65.431145	NaN
67.108864	NaN
68.786583	NaN
70.464310	NaN
72.142029	NaN
73.819748	NaN
75.497475	NaN
77.175194	NaN
78.852913	NaN
80.530640	NaN
82.208359	NaN
83.886078	NaN
85.563805	NaN
87.241524	NaN
88.919243	NaN
90.596970	NaN
92.274689	NaN
93.952408	NaN
95.630135	NaN
97.307854	NaN
98.985573	NaN
100.663300	NaN
102.341019	NaN
104.018738	NaN
105.696465	NaN
107.374184	NaN
110.729622	NaN
114.085068	NaN
117.440514	NaN
120.795952	NaN
124.151398	NaN
127.506844	NaN
130.862289	NaN
134.217728	NaN
137.573166	NaN
140.928619	NaN
144.284058	NaN
147.639496	NaN
150.994949	NaN
154.350388	NaN
157.705826	NaN
161.061279	NaN
164.416718	NaN
167.772156	NaN
171.127609	NaN
174.483047	NaN
177.838486	NaN
181.193939	NaN
184.549377	NaN
187.904816	NaN
191.260269	NaN
194.615707	NaN
197.971146	NaN
201.326599	NaN
204.682037	NaN
208.037476	NaN
211.392929	NaN
214.748367	NaN
221.459244	NaN
228.170135	NaN
234.881027	NaN
241.591904	NaN
248.302795	NaN
255.013687	NaN
261.724579	NaN
268.435455	NaN
275.146332	NaN
281.857239	NaN
288.568115	NaN
295.278992	NaN
301.989899	NaN
308.700775	NaN
315.411652	NaN
322.122559	NaN
328.833435	NaN
335.544312	NaN
342.255219	NaN
348.966095	NaN
355.676971	NaN
362.387878	NaN
369.098755	NaN
375.809631	NaN
382.520538	NaN
389.231415	NaN
395.942291	NaN
402.653198	NaN
409.364075	NaN
416.074951	NaN
422.785858	NaN
429.496735	NaN
442.918488	NaN
456.340271	NaN
469.762054	NaN
483.183807	NaN
496.605591	NaN
510.027374	NaN
523.449158	NaN
536.870911	NaN
550.292664	NaN
563.714478	NaN
577.136230	NaN
590.557983	NaN
603.979797	NaN
617.401550	NaN
630.823303	NaN
644.245117	NaN
657.666870	NaN
671.088623	NaN
684.510437	NaN
697.932190	NaN
711.353943	NaN
724.775757	NaN
738.197510	NaN
751.619263	NaN
765.041077	NaN
778.462830	NaN
791.884583	NaN
805.306396	NaN
818.728149	NaN
832.149902	NaN
845.571716	NaN
858.993469	NaN
885.836975	NaN
912.680542	NaN
939.524109	NaN
966.367615	NaN
993.211182	NaN
1020.054749	NaN
1046.898315	NaN
1073.741821	NaN
1100.585327	NaN
1127.428955	NaN
1154.272461	NaN
1181.115967	NaN
1207.959595	NaN
1234.803101	NaN
1261.646606	NaN
1288.490234	NaN
1315.333740	NaN
1342.177246	NaN
1369.020874	NaN
1395.864380	NaN
1422.707886	NaN
1449.551514	NaN
1476.395020	NaN
1503.238525	NaN
1530.082153	NaN
1556.925659	NaN
1583.769165	NaN
1610.612793	NaN
1637.456299	NaN
1664.299805	NaN
1691.143433	NaN
1717.986938	NaN
1771.673950	NaN
1825.361084	NaN
1879.048218	NaN
1932.735229	NaN
1986.422363	NaN
2040.109497	NaN
2093.796631	NaN
2147.483643	NaN
2201.170654	NaN
2254.857910	NaN
2308.544922	NaN
2362.231934	NaN
2415.919189	NaN
2469.606201	NaN
2523.293213	NaN
2576.980469	NaN
2630.667480	NaN
2684.354492	NaN
2738.041748	NaN
2791.728760	NaN
2845.415771	NaN
2899.103027	NaN
2952.790039	NaN
3006.477051	NaN
3060.164307	NaN
3113.851318	NaN
3167.538330	NaN
3221.225586	NaN
3274.912598	NaN
3328.599609	NaN
3382.286865	NaN
3435.973877	NaN
0.000000	NaN
0.000000	NaN
0.000000	NaN
0.000000	NaN
0.000000	NaN
0.000000	NaN
0.000000	NaN
0.000000	NaN
0.000000	NaN
0.000000	NaN
0.000000	NaN
0.000000	NaN
0.000000	NaN
0.000000	NaN
0.000000	NaN
0.000000	NaN
0.000000	NaN
0.000000	NaN
0.000000	NaN
0.000000	NaN
0.000000	NaN
0.000000	NaN
0.000000	NaN
0.000000	NaN
0.000000	NaN
0.000000	NaN
0.000000	NaN
0.000000	NaN
0.000000	NaN
0.000000	NaN
0.000000	NaN
0.000000	NaN

Count Rate History (KHz)  CR CHA / CR CHB
0.000000	75.063705	73.394775
0.104858	71.010590	68.635941
0.209715	74.787140	76.923370
0.314573	76.446533	71.344376
0.419430	64.401627	62.246323
0.524288	65.145493	62.665939
0.629146	78.630447	77.209473
0.734003	78.306198	75.159073
0.838861	68.511963	69.141388
0.943718	71.926117	71.725845
1.048576	71.659088	70.114136
1.153434	66.423416	64.363480
1.258291	69.227219	66.003799
1.363149	60.920715	60.195923
1.468006	70.629120	69.885254
1.572864	74.224472	72.698593
1.677722	71.573257	69.169998
1.782579	67.338943	67.491531
1.887437	76.532364	75.578690
1.992294	75.626373	73.394775
2.097152	76.160431	71.954727
2.202010	63.734055	60.281754
2.306867	68.626404	65.803528
2.411725	67.052841	66.957474
2.516582	75.502396	74.491501
2.621440	68.788528	68.683624
2.726298	62.904358	61.388016
2.831155	72.488785	71.039200
2.936013	70.114136	68.216324
3.040870	70.028305	68.664551
3.145728	69.284439	67.424774
3.250586	60.691833	57.630539
3.355443	69.341660	68.435669
3.460301	56.877136	55.017471
3.565158	64.611435	61.054230
3.670016	65.937042	66.127777
3.774874	68.569183	66.671371
3.879731	76.293945	75.674057
3.984589	74.033737	77.171326
4.089446	71.964264	73.404312
4.194304	79.584122	77.943802
4.299162	74.014664	72.402954
4.404019	83.131790	82.006454
4.508877	70.848465	69.379807
4.613734	71.201324	67.081451
4.718592	72.679520	68.702698
4.823450	70.171356	68.368912
4.928307	63.591003	62.208176
5.033165	65.383911	64.888000
5.138022	72.364807	70.466995
5.242880	66.328049	66.127777
5.347738	62.608719	60.129166
5.452595	62.828064	58.832169
5.557453	61.111450	58.803558
5.662310	67.129135	66.137314
5.767168	64.392090	62.694550
5.872026	61.759949	60.443878
5.976883	71.620941	72.402954
6.081741	64.964294	63.228607
6.186598	66.499710	63.610077
6.291456	63.791275	63.247681
6.396314	63.714981	63.037872
6.501171	67.977905	67.501068
6.606029	68.941116	69.894791
6.710886	84.838867	81.872940
6.815744	77.438354	77.028275
6.920602	73.213577	73.165894
7.025459	63.142776	61.016083
7.130317	71.525574	71.449280
7.235174	71.296692	71.249008
7.340032	76.293945	72.660446
7.444890	61.416626	60.586929
7.549747	72.088242	70.743561
7.654605	63.657761	61.359406
7.759462	58.088303	57.640076
7.864320	65.193176	62.189102
7.969178	69.580078	69.646835
8.074035	67.930222	64.764023
8.178893	78.783035	79.393387
8.283750	62.494278	63.819885
8.388608	72.031021	66.118240
8.493466	76.112747	78.268051
8.598323	71.029663	67.462921
8.703181	71.573257	68.979263
8.808038	73.633194	73.947906
8.912896	72.908401	72.755814
9.017754	62.265396	61.378479
9.122611	62.599182	62.446594
9.227469	69.847107	70.734024
9.332326	71.401596	71.201324
9.437184	80.833435	79.879761
9.542042	70.610046	69.551468
9.646899	71.735382	70.314407
9.751757	65.584183	62.618256
9.856614	70.724487	67.787170
9.961472	70.724487	67.386627
10.066330	78.153610	76.646805
10.171187	75.788498	76.389313
10.276045	65.460205	60.167313
10.380902	70.400238	69.322586
10.485760	62.103271	58.660507
10.590618	61.426163	60.634613
10.695475	59.690475	60.081482
10.800333	67.739487	64.191818
10.905190	69.284439	66.928864
11.010048	64.363480	64.611435
11.114906	61.607361	61.635971
11.219763	65.231323	66.518784
11.324621	72.097778	70.829391
11.429478	69.446564	67.253113
11.534336	71.849823	72.460175
11.639194	68.531036	64.916611
11.744051	64.773560	63.867569
11.848909	68.664551	65.507889
11.953766	67.892075	66.928864
12.058624	59.480667	59.013367
12.163482	71.592331	70.314407
12.268339	61.292648	58.259964
12.373197	77.581406	75.788498
12.478054	71.086884	72.135925
12.582912	75.759888	71.935654
12.687770	68.502426	68.273544
12.792627	68.712234	65.479279
12.897485	64.725876	63.514709
13.002342	77.581406	73.785782
13.107200	62.341690	58.898926
13.212058	65.307617	63.838959
13.316915	82.931519	85.077286
13.421773	60.949326	59.032440
13.526630	72.374344	71.458817
13.631488	60.844421	60.863495
13.736346	75.798035	72.307587
13.841203	59.328079	60.596466
13.946061	82.073212	79.231262
14.050918	68.693161	64.640045
14.155776	65.593719	63.524246
14.260634	74.586868	72.317123
14.365491	73.699951	70.648193
14.470349	85.182190	83.341599
14.575206	69.303513	69.255829
14.680064	66.623688	63.781738
14.784922	70.066452	69.494247
14.889779	71.849823	72.097778
14.994637	67.520142	64.296722
15.099494	69.084167	67.367554
15.204352	80.614090	80.966949
15.309210	66.061020	65.307617
15.414067	68.378448	68.349838
15.518925	65.422058	62.322617
15.623782	67.310333	67.243576
15.728640	70.791245	68.979263
15.833498	59.728622	59.223175
15.938355	69.818497	66.642761
16.043213	68.769455	66.051483
16.148070	66.843033	67.195892
16.252928	74.071884	71.802139
16.357786	67.539215	68.426132
16.462643	66.251755	59.785843
16.567501	67.729950	65.956116
16.672358	75.635910	77.371597
16.777216	79.011917	76.293945
16.882074	69.093704	65.994263
16.986931	64.153671	62.818527
17.091789	73.442459	72.746277
17.196646	77.619553	76.494217
17.301504	67.796707	64.687729
17.406362	67.510605	67.157745
17.511219	66.051483	64.458847
17.616077	58.641434	58.774948
17.720934	73.394775	71.763992
17.825792	63.018799	60.682297
17.930650	67.024231	66.328049
18.035507	68.893433	69.503784
18.140365	67.405701	63.199997
18.245222	70.152283	70.209503
18.350080	67.739487	68.178177
18.454938	75.120926	75.025558
18.559795	70.915222	69.732666
18.664653	72.860718	72.822571
18.769510	71.754456	70.753098
18.874368	71.449280	69.780350
18.979226	74.644089	73.432922
19.084083	76.389313	74.234009
19.188941	64.048767	62.713623
19.293798	61.798096	61.235428
19.398656	69.971085	69.894791
19.503514	68.588257	68.845749
19.608371	66.633224	66.690445
19.713229	68.407059	67.081451
