1/9/2026	8:32 AM
Pseudo Cross Correlation
Scattering angle:	130.0
Duration (s):	20
Wavelength (nm):	632.8
Refractive index:	1.330
Viscosity (mPas):	0.884
Temperature (K):	298.5
Laser intensity (mW):	8.634626
Average Count rate  A (kHz):	46.2
Average Count rate  B (kHz):	49.9
Intercept:	0.6929
Cumulant 1st	3717.58
Cumulant 2nd	1251.54	551.76
Cumulant 3rd	632.31	311.70

Lag time (s)         g2-1
1.250000E-8	0.885788
2.500000E-8	1.015479
3.750000E-8	0.943623
5.000000E-8	1.101356
6.250000E-8	0.997953
7.500000E-8	0.936613
8.750000E-8	0.954139
1.000000E-7	0.976922
1.125000E-7	0.997953
1.250000E-7	0.990943
1.375000E-7	0.996201
1.500000E-7	0.954139
1.625000E-7	1.061047
1.750000E-7	1.090841
1.875000E-7	0.841973
2.000000E-7	1.041768
2.125000E-7	0.945376
2.250000E-7	0.917334
2.375000E-7	0.952386
2.500000E-7	0.915582
2.625000E-7	1.038263
2.750000E-7	0.931355
2.875000E-7	0.950634
3.000000E-7	0.926097
3.125000E-7	0.968159
3.250000E-7	0.919087
3.375000E-7	0.997953
3.500000E-7	0.927850
3.625000E-7	1.010222
3.750000E-7	0.975170
3.875000E-7	1.062799
4.000000E-7	0.962902
4.125000E-7	0.982180
4.250000E-7	1.015479
4.375000E-7	0.910324
4.500000E-7	0.912077
4.625000E-7	0.941871
4.750000E-7	1.022490
4.875000E-7	0.959396
5.000000E-7	0.955891
5.125000E-7	0.901561
5.250000E-7	0.982180
5.375000E-7	0.863004
5.500000E-7	0.959396
5.625000E-7	0.936613
5.750000E-7	0.894551
5.875000E-7	1.013727
6.000000E-7	0.838468
6.125000E-7	0.980428
6.250000E-7	0.971665
6.375000E-7	0.889293
6.500000E-7	0.920839
6.625000E-7	0.845478
6.750000E-7	0.999706
6.875000E-7	1.040016
7.000000E-7	0.920839
7.125000E-7	0.992696
7.250000E-7	1.038263
7.375000E-7	0.966407
7.500000E-7	0.915582
7.625000E-7	0.885788
7.750000E-7	1.003211
7.875000E-7	0.947128
8.000000E-7	0.875272
8.250000E-7	0.958520
8.500000E-7	0.933984
8.750000E-7	0.972541
9.000000E-7	1.002335
9.250000E-7	1.014603
9.500000E-7	0.998830
9.750000E-7	0.983933
1.000000E-6	0.916458
1.025000E-6	0.962902
1.050000E-6	0.976046
1.075000E-6	0.983056
1.100000E-6	0.961149
1.125000E-6	0.913829
1.150000E-6	0.876148
1.175000E-6	1.005840
1.200000E-6	0.947128
1.225000E-6	0.971665
1.250000E-6	0.986562
1.275000E-6	0.935736
1.300000E-6	0.945376
1.325000E-6	1.045273
1.350000E-6	1.054036
1.375000E-6	0.948881
1.400000E-6	1.016356
1.425000E-6	0.907695
1.450000E-6	0.950634
1.475000E-6	0.933108
1.500000E-6	0.917334
1.525000E-6	0.990943
1.550000E-6	0.983933
1.575000E-6	0.940118
1.600000E-6	0.933984
1.650000E-6	0.974293
1.700000E-6	0.981304
1.750000E-6	0.974732
1.800000E-6	0.919087
1.850000E-6	0.997077
1.900000E-6	0.963778
1.950000E-6	0.939680
2.000000E-6	0.951948
2.050000E-6	0.988752
2.100000E-6	0.961587
2.150000E-6	0.962025
2.200000E-6	0.938804
2.250000E-6	0.968598
2.300000E-6	1.001021
2.350000E-6	0.883159
2.400000E-6	0.964216
2.450000E-6	0.923030
2.500000E-6	0.954577
2.550000E-6	0.959835
2.600000E-6	1.011536
2.650000E-6	0.953262
2.700000E-6	0.948443
2.750000E-6	0.931793
2.800000E-6	0.916020
2.850000E-6	0.959835
2.900000E-6	0.975608
2.950000E-6	0.997953
3.000000E-6	0.966845
3.050000E-6	0.921716
3.100000E-6	0.942747
3.150000E-6	0.969036
3.200000E-6	1.001021
3.300000E-6	0.947567
3.400000E-6	0.934641
3.500000E-6	0.971884
3.600000E-6	0.998173
3.700000E-6	0.945376
3.800000E-6	0.937270
3.900000E-6	0.935956
4.000000E-6	0.938584
4.100000E-6	0.986124
4.200000E-6	0.958301
4.300000E-6	0.942747
4.400000E-6	0.954358
4.500000E-6	0.923907
4.600000E-6	0.970788
4.700000E-6	0.949319
4.800000E-6	0.951948
4.900000E-6	0.956768
5.000000E-6	0.945595
5.100000E-6	0.980428
5.200000E-6	0.973198
5.300000E-6	0.951072
5.400000E-6	0.948005
5.500000E-6	0.942528
5.600000E-6	0.954358
5.700000E-6	0.944499
5.800000E-6	0.974732
5.900000E-6	0.961806
6.000000E-6	0.987438
6.100000E-6	0.951510
6.200000E-6	0.938804
6.300000E-6	0.926097
6.400000E-6	0.948224
6.600000E-6	0.931684
6.800000E-6	0.965859
7.000000E-6	0.953262
7.200000E-6	0.952496
7.400000E-6	0.934313
7.600000E-6	0.962025
7.800000E-6	0.928178
8.000000E-6	0.954139
8.200000E-6	0.951948
8.400000E-6	0.948662
8.600000E-6	0.943404
8.800000E-6	0.962244
9.000000E-6	0.934203
9.200000E-6	0.954467
9.400000E-6	0.966845
9.600000E-6	0.921387
9.800000E-6	0.953043
1.000000E-5	0.959068
1.020000E-5	0.934203
1.040000E-5	0.935298
1.060000E-5	0.950634
1.080000E-5	0.943842
1.100000E-5	0.964326
1.120000E-5	0.938365
1.140000E-5	0.943842
1.160000E-5	0.946142
1.180000E-5	0.947347
1.200000E-5	0.936941
1.220000E-5	0.932998
1.240000E-5	0.943514
1.260000E-5	0.936722
1.280000E-5	0.947347
1.320000E-5	0.938475
1.360000E-5	0.961587
1.400000E-5	0.934751
1.440000E-5	0.939023
1.480000E-5	0.937927
1.520000E-5	0.925933
1.560000E-5	0.925823
1.600000E-5	0.939625
1.640000E-5	0.925659
1.680000E-5	0.916403
1.720000E-5	0.927028
1.760000E-5	0.936503
1.800000E-5	0.912405
1.840000E-5	0.945376
1.880000E-5	0.931629
1.920000E-5	0.935024
1.960000E-5	0.929876
2.000000E-5	0.924235
2.040000E-5	0.920675
2.080000E-5	0.942528
2.120000E-5	0.948059
2.160000E-5	0.922811
2.200000E-5	0.916622
2.240000E-5	0.921113
2.280000E-5	0.924016
2.320000E-5	0.923578
2.360000E-5	0.901287
2.400000E-5	0.925111
2.440000E-5	0.927412
2.480000E-5	0.909886
2.520000E-5	0.936558
2.560000E-5	0.918101
2.640000E-5	0.916020
2.720000E-5	0.918758
2.800000E-5	0.904929
2.880000E-5	0.912542
2.960000E-5	0.917252
3.040000E-5	0.909995
3.120000E-5	0.913966
3.200000E-5	0.913172
3.280000E-5	0.902246
3.360000E-5	0.899261
3.440000E-5	0.908708
3.520000E-5	0.899014
3.600000E-5	0.894496
3.680000E-5	0.911310
3.760000E-5	0.914596
3.840000E-5	0.897344
3.920000E-5	0.908845
4.000000E-5	0.895728
4.080000E-5	0.900493
4.160000E-5	0.897344
4.240000E-5	0.882638
4.320000E-5	0.883077
4.400000E-5	0.888718
4.480000E-5	0.893811
4.560000E-5	0.883542
4.640000E-5	0.887294
4.720000E-5	0.880530
4.800000E-5	0.879243
4.880000E-5	0.880995
4.960000E-5	0.883871
5.040000E-5	0.875984
5.120000E-5	0.867796
5.280000E-5	0.878738
5.440000E-5	0.861692
5.600000E-5	0.861336
5.760000E-5	0.865389
5.920000E-5	0.864814
6.080000E-5	0.863776
6.240000E-5	0.853836
6.400000E-5	0.856724
6.560000E-5	0.847140
6.720000E-5	0.853536
6.880000E-5	0.849648
7.040000E-5	0.841666
7.200000E-5	0.848320
7.360000E-5	0.832082
7.520000E-5	0.848731
7.680000E-5	0.844668
7.840000E-5	0.831515
8.000000E-5	0.826586
8.160000E-5	0.824672
8.320000E-5	0.831955
8.480000E-5	0.831682
8.640000E-5	0.822374
8.800000E-5	0.822237
8.960000E-5	0.829548
9.120000E-5	0.814063
9.280000E-5	0.810626
9.440000E-5	0.807820
9.600000E-5	0.802357
9.760000E-5	0.803030
9.920000E-5	0.809124
0.000101	0.801772
0.000102	0.797886
0.000106	0.796154
0.000109	0.785592
0.000112	0.783415
0.000115	0.784175
0.000118	0.780054
0.000122	0.773005
0.000125	0.764145
0.000128	0.762557
0.000131	0.760873
0.000134	0.759942
0.000138	0.756398
0.000141	0.753497
0.000144	0.742528
0.000147	0.745882
0.000150	0.741699
0.000154	0.745067
0.000157	0.734362
0.000160	0.725429
0.000163	0.724623
0.000166	0.722811
0.000170	0.722633
0.000173	0.710535
0.000176	0.707818
0.000179	0.699224
0.000182	0.700723
0.000186	0.699819
0.000189	0.695301
0.000192	0.679963
0.000195	0.685309
0.000198	0.685810
0.000202	0.677130
0.000205	0.669438
0.000211	0.667661
0.000218	0.662987
0.000224	0.653110
0.000230	0.652001
0.000237	0.642493
0.000243	0.634771
0.000250	0.625769
0.000256	0.622203
0.000262	0.619039
0.000269	0.612212
0.000275	0.604955
0.000282	0.598931
0.000288	0.591606
0.000294	0.592327
0.000301	0.583156
0.000307	0.574188
0.000314	0.569918
0.000320	0.565894
0.000326	0.559932
0.000333	0.554288
0.000339	0.549901
0.000346	0.550944
0.000352	0.537709
0.000358	0.538065
0.000365	0.532734
0.000371	0.528160
0.000378	0.518092
0.000384	0.514628
0.000390	0.510566
0.000397	0.505810
0.000403	0.500921
0.000410	0.499592
0.000422	0.490153
0.000435	0.481891
0.000448	0.472289
0.000461	0.463245
0.000474	0.458754
0.000486	0.450237
0.000499	0.444822
0.000512	0.436457
0.000525	0.424314
0.000538	0.421310
0.000550	0.414457
0.000563	0.406469
0.000576	0.398935
0.000589	0.392339
0.000602	0.384961
0.000614	0.380018
0.000627	0.373460
0.000640	0.370509
0.000653	0.360179
0.000666	0.353974
0.000678	0.351175
0.000691	0.345506
0.000704	0.339663
0.000717	0.338001
0.000730	0.330495
0.000742	0.328241
0.000755	0.319051
0.000768	0.317233
0.000781	0.314623
0.000794	0.309573
0.000806	0.306398
0.000819	0.302686
0.000845	0.295389
0.000870	0.285205
0.000896	0.278633
0.000922	0.273445
0.000947	0.269919
0.000973	0.262343
0.000998	0.257862
0.001024	0.255760
0.001050	0.247475
0.001075	0.244810
0.001101	0.240117
0.001126	0.235739
0.001152	0.231866
0.001178	0.227635
0.001203	0.224652
0.001229	0.221254
0.001254	0.215890
0.001280	0.214856
0.001306	0.210457
0.001331	0.209077
0.001357	0.204906
0.001382	0.202136
0.001408	0.199565
0.001434	0.197229
0.001459	0.194407
0.001485	0.194336
0.001510	0.191952
0.001536	0.187524
0.001562	0.187031
0.001587	0.180756
0.001613	0.181139
0.001638	0.178264
0.001690	0.172825
0.001741	0.166740
0.001792	0.164040
0.001843	0.160897
0.001894	0.161452
0.001946	0.157785
0.001997	0.156615
0.002048	0.151719
0.002099	0.151530
0.002150	0.147363
0.002202	0.147268
0.002253	0.145418
0.002304	0.144465
0.002355	0.143241
0.002406	0.142814
0.002458	0.141952
0.002509	0.141334
0.002560	0.141248
0.002611	0.141430
0.002662	0.141666
0.002714	0.141685
0.002765	0.140451
0.002816	0.140637
0.002867	0.141447
0.002918	0.142510
0.002970	0.142704
0.003021	0.141107
0.003072	0.141793
0.003123	0.142354
0.003174	0.141137
0.003226	0.139941
0.003277	0.138909
0.003379	0.136266
0.003482	0.135160
0.003584	0.134122
0.003686	0.131655
0.003789	0.128191
0.003891	0.127315
0.003994	0.126997
0.004096	0.126025
0.004198	0.125488
0.004301	0.124475
0.004403	0.123292
0.004506	0.121856
0.004608	0.121524
0.004710	0.119921
0.004813	0.118313
0.004915	0.116626
0.005018	0.116860
0.005120	0.119677
0.005222	0.119079
0.005325	0.119578
0.005427	0.120157
0.005530	0.120077
0.005632	0.121859
0.005734	0.122176
0.005837	0.123305
0.005939	0.123402
0.006042	0.122700
0.006144	0.121895
0.006246	0.122951
0.006349	0.121860
0.006451	0.120838
0.006554	0.121220
0.006758	0.120962
0.006963	0.121349
0.007168	0.123131
0.007373	0.123024
0.007578	0.121006
0.007782	0.120399
0.007987	0.121796
0.008192	0.123065
0.008397	0.125340
0.008602	0.125335
0.008806	0.123144
0.009011	0.120915
0.009216	0.121240
0.009421	0.116282
0.009626	0.112173
0.009830	0.109322
0.010035	0.105253
0.010240	0.102073
0.010445	0.100585
0.010650	0.102262
0.010854	0.104518
0.011059	0.106036
0.011264	0.107194
0.011469	0.108170
0.011674	0.109973
0.011878	0.109587
0.012083	0.108438
0.012288	0.105802
0.012493	0.105382
0.012698	0.105468
0.012902	0.105704
0.013107	0.108385
0.013517	0.104211
0.013926	0.100543
0.014336	0.101137
0.014746	0.101548
0.015155	0.104646
0.015565	0.108707
0.015974	0.114536
0.016384	0.117439
0.016794	0.115116
0.017203	0.112533
0.017613	0.112155
0.018022	0.118932
0.018432	0.120140
0.018842	0.118316
0.019251	0.117256
0.019661	0.113905
0.020070	0.118744
0.020480	0.126586
0.020890	0.128921
0.021299	0.126721
0.021709	0.120806
0.022118	0.113925
0.022528	0.107821
0.022938	0.103691
0.023347	0.101238
0.023757	0.100631
0.024166	0.108722
0.024576	0.108510
0.024986	0.109838
0.025395	0.112968
0.025805	0.113283
0.026214	0.113175
0.027034	0.104276
0.027853	0.103348
0.028672	0.105478
0.029491	0.109257
0.030310	0.102602
0.031130	0.102822
0.031949	0.102221
0.032768	0.105223
0.033587	0.104515
0.034406	0.100648
0.035226	0.111583
0.036045	0.111424
0.036864	0.104656
0.037683	0.105581
0.038502	0.106366
0.039322	0.101177
0.040141	0.100113
0.040960	0.097384
0.041779	0.101317
0.042598	0.099293
0.043418	0.093183
0.044237	0.091400
0.045056	0.096688
0.045875	0.093397
0.046694	0.086395
0.047514	0.079404
0.048333	0.092233
0.049152	0.093220
0.049971	0.091975
0.050790	0.095980
0.051610	0.099877
0.052429	0.094699
0.054067	0.103253
0.055706	0.092669
0.057344	0.097767
0.058982	0.099953
0.060621	0.093155
0.062259	0.092060
0.063898	0.091870
0.065536	0.087270
0.067174	0.084075
0.068813	0.082052
0.070451	0.085744
0.072090	0.090293
0.073728	0.092346
0.075366	0.090334
0.077005	0.093575
0.078643	0.094074
0.080282	0.084364
0.081920	0.080102
0.083558	0.087239
0.085197	0.083922
0.086835	0.066997
0.088474	0.069368
0.090112	0.071349
0.091750	0.075082
0.093389	0.089633
0.095027	0.082627
0.096666	0.074004
0.098304	0.072163
0.099942	0.080422
0.101581	0.077578
0.103219	0.069948
0.104858	0.075477
0.108134	0.069175
0.111411	0.068214
0.114688	0.067190
0.117965	0.061684
0.121242	0.058026
0.124518	0.061109
0.127795	0.074644
0.131072	0.067126
0.134349	0.061968
0.137626	0.068138
0.140902	0.066319
0.144179	0.072042
0.147456	0.072379
0.150733	0.063599
0.154010	0.061933
0.157286	0.060302
0.160563	0.064360
0.163840	0.067790
0.167117	0.065777
0.170394	0.067225
0.173670	0.064210
0.176947	0.065585
0.180224	0.065447
0.183501	0.066584
0.186778	0.068346
0.190054	0.063850
0.193331	0.064774
0.196608	0.064325
0.199885	0.068245
0.203162	0.072016
0.206438	0.073596
0.209715	0.070765
0.216269	0.068216
0.222822	0.072490
0.229376	0.071898
0.235930	0.061686
0.242483	0.060683
0.249037	0.069163
0.255590	0.059620
0.262144	0.056007
0.268698	0.064641
0.275251	0.061227
0.281805	0.062214
0.288358	0.065420
0.294912	0.051946
0.301466	0.058123
0.308019	0.052870
0.314573	0.052562
0.321126	0.053847
0.327680	0.050297
0.334234	0.044176
0.340787	0.044047
0.347341	0.046551
0.353894	0.048836
0.360448	0.048596
0.367002	0.044208
0.373555	0.046137
0.380109	0.052402
0.386662	0.046480
0.393216	0.046027
0.399770	0.047004
0.406323	0.047606
0.412877	0.046119
0.419430	0.047289
0.432538	0.047115
0.445645	0.046415
0.458752	0.042154
0.471859	0.040501
0.484966	0.044663
0.498074	0.038204
0.511181	0.041059
0.524288	0.038934
0.537395	0.027764
0.550502	0.032132
0.563610	0.035548
0.576717	0.036724
0.589824	0.039585
0.602931	0.037492
0.616038	0.032077
0.629146	0.036147
0.642253	0.034280
0.655360	0.040650
0.668467	0.039620
0.681574	0.032266
0.694682	0.036186
0.707789	0.032284
0.720896	0.025004
0.734003	0.030029
0.747110	0.023133
0.760218	0.022984
0.773325	0.020340
0.786432	0.015625
0.799539	0.017317
0.812646	0.013862
0.825754	0.010516
0.838861	0.014121
0.865075	0.013358
0.891290	0.009015
0.917504	0.004907
0.943718	0.002589
0.969933	-0.002046
0.996147	-0.001861
1.022362	-0.001046
1.048576	-0.000601
1.074790	0.000274
1.101005	-0.003743
1.127219	-0.008738
1.153434	-0.005533
1.179648	-0.009164
1.205862	-0.006067
1.232077	-0.007959
1.258291	-0.008651
1.284506	-0.010317
1.310720	-0.011464
1.336934	-0.009040
1.363149	-0.011419
1.389363	-0.012931
1.415578	-0.016075
1.441792	-0.011814
1.468006	-0.013153
1.494221	-0.011701
1.520435	-0.010412
1.546650	-0.010116
1.572864	-0.010936
1.599078	-0.012111
1.625293	-0.013595
1.651507	-0.013082
1.677722	-0.013366
1.730150	-0.011579
1.782579	-0.009088
1.835008	-0.015067
1.887437	-0.015185
1.939866	-0.009538
1.992294	-0.009202
2.044723	-0.011818
2.097152	-0.014794
2.149581	-0.014164
2.202010	-0.011685
2.254438	-0.012386
2.306867	-0.014844
2.359296	-0.013038
2.411725	-0.008172
2.464154	-0.008513
2.516582	-0.011125
2.569011	-0.010219
2.621440	-0.007344
2.673869	-0.005671
2.726298	-0.009011
2.778726	-0.004165
2.831155	-0.001695
2.883584	-0.005190
2.936013	-0.006164
2.988442	-0.003380
3.040870	-0.004018
3.093299	-0.005094
3.145728	-0.005800
3.198157	-0.006590
3.250586	-0.006190
3.303015	-0.006184
3.355443	-0.007603
3.460301	-0.006493
3.565158	-0.004660
3.670016	-0.005216
3.774873	-0.002878
3.879731	-0.003465
3.984589	-0.002933
4.089447	-0.004286
4.194304	-0.007947
4.299161	-0.006129
4.404019	-0.004065
4.508877	-0.004472
4.613734	-0.005078
4.718592	-0.001962
4.823450	-0.006626
4.928307	-0.009007
5.033165	-0.008601
5.138022	-0.002962
5.242880	-0.005067
5.347738	-0.003282
5.452595	-0.003650
5.557453	-0.002798
5.662311	-0.005054
5.767168	-0.005603
5.872025	-0.002607
5.976883	-0.004435
6.081741	-0.004544
6.186598	-0.006990
6.291456	-0.006617
6.396314	-0.006178
6.501171	-0.007704
6.606029	-0.005088
6.710886	-0.002116
6.920601	-0.001001
7.130317	-0.000528
7.340032	0.003313
7.549747	0.002351
7.759462	0.000155
7.969178	0.000951
8.178893	0.001947
8.388608	0.004694
8.598323	-8.563643E-5
8.808039	0.000852
9.017754	-0.001335
9.227468	0.003543
9.437184	0.002380
9.646899	-0.000618
9.856614	-0.000441
10.066330	-0.006207
10.276045	-0.006333
10.485760	-0.009425
10.695476	-0.007585
10.905190	-0.005694
11.114905	0.000556
11.324621	0.006739
11.534336	0.006310
11.744051	0.009068
11.953767	0.006248
12.163482	0.003238
12.373197	-0.000978
12.582912	-0.008788
12.792627	-0.003376
13.002342	-0.006423
13.212058	0.001756
13.421773	0.003930
13.841203	0.017824
14.260633	0.009125
14.680064	-0.006704
15.099494	-0.008439
15.518925	-0.001872
15.938355	-0.001308
16.357786	-0.001114
16.777216	0.002563
17.196646	0.001990
17.616077	-0.001619
18.035507	-0.000951
18.454937	-3.060604E-5
18.874369	0.000000
19.293798	NaN
19.713228	NaN
20.132660	NaN
20.552090	NaN
20.971519	NaN
21.390951	NaN
21.810381	NaN
22.229811	NaN
22.649242	NaN
23.068672	NaN
23.488102	NaN
23.907534	NaN
24.326963	NaN
24.746393	NaN
25.165825	NaN
25.585255	NaN
26.004684	NaN
26.424116	NaN
26.843546	NaN
27.682405	NaN
28.521267	NaN
29.360128	NaN
30.198988	NaN
31.037849	NaN
31.876711	NaN
32.715572	NaN
33.554432	NaN
34.393291	NaN
35.232155	NaN
36.071014	NaN
36.909874	NaN
37.748737	NaN
38.587597	NaN
39.426456	NaN
40.265320	NaN
41.104179	NaN
41.943039	NaN
42.781902	NaN
43.620762	NaN
44.459621	NaN
45.298485	NaN
46.137344	NaN
46.976204	NaN
47.815067	NaN
48.653927	NaN
49.492786	NaN
50.331650	NaN
51.170509	NaN
52.009369	NaN
52.848232	NaN
53.687092	NaN
55.364811	NaN
57.042534	NaN
58.720257	NaN
60.397976	NaN
62.075699	NaN
63.753422	NaN
65.431145	NaN
67.108864	NaN
68.786583	NaN
70.464310	NaN
72.142029	NaN
73.819748	NaN
75.497475	NaN
77.175194	NaN
78.852913	NaN
80.530640	NaN
82.208359	NaN
83.886078	NaN
85.563805	NaN
87.241524	NaN
88.919243	NaN
90.596970	NaN
92.274689	NaN
93.952408	NaN
95.630135	NaN
97.307854	NaN
98.985573	NaN
100.663300	NaN
102.341019	NaN
104.018738	NaN
105.696465	NaN
107.374184	NaN
110.729622	NaN
114.085068	NaN
117.440514	NaN
120.795952	NaN
124.151398	NaN
127.506844	NaN
130.862289	NaN
134.217728	NaN
137.573166	NaN
140.928619	NaN
144.284058	NaN
147.639496	NaN
150.994949	NaN
154.350388	NaN
157.705826	NaN
161.061279	NaN
164.416718	NaN
167.772156	NaN
171.127609	NaN
174.483047	NaN
177.838486	NaN
181.193939	NaN
184.549377	NaN
187.904816	NaN
191.260269	NaN
194.615707	NaN
197.971146	NaN
201.326599	NaN
204.682037	NaN
208.037476	NaN
211.392929	NaN
214.748367	NaN
221.459244	NaN
228.170135	NaN
234.881027	NaN
241.591904	NaN
248.302795	NaN
255.013687	NaN
261.724579	NaN
268.435455	NaN
275.146332	NaN
281.857239	NaN
288.568115	NaN
295.278992	NaN
301.989899	NaN
308.700775	NaN
315.411652	NaN
322.122559	NaN
328.833435	NaN
335.544312	NaN
342.255219	NaN
348.966095	NaN
355.676971	NaN
362.387878	NaN
369.098755	NaN
375.809631	NaN
382.520538	NaN
389.231415	NaN
395.942291	NaN
402.653198	NaN
409.364075	NaN
416.074951	NaN
422.785858	NaN
429.496735	NaN
442.918488	NaN
456.340271	NaN
469.762054	NaN
483.183807	NaN
496.605591	NaN
510.027374	NaN
523.449158	NaN
536.870911	NaN
550.292664	NaN
563.714478	NaN
577.136230	NaN
590.557983	NaN
603.979797	NaN
617.401550	NaN
630.823303	NaN
644.245117	NaN
657.666870	NaN
671.088623	NaN
684.510437	NaN
697.932190	NaN
711.353943	NaN
724.775757	NaN
738.197510	NaN
751.619263	NaN
765.041077	NaN
778.462830	NaN
791.884583	NaN
805.306396	NaN
818.728149	NaN
832.149902	NaN
845.571716	NaN
858.993469	NaN
885.836975	NaN
912.680542	NaN
939.524109	NaN
966.367615	NaN
993.211182	NaN
1020.054749	NaN
1046.898315	NaN
1073.741821	NaN
1100.585327	NaN
1127.428955	NaN
1154.272461	NaN
1181.115967	NaN
1207.959595	NaN
1234.803101	NaN
1261.646606	NaN
1288.490234	NaN
1315.333740	NaN
1342.177246	NaN
1369.020874	NaN
1395.864380	NaN
1422.707886	NaN
1449.551514	NaN
1476.395020	NaN
1503.238525	NaN
1530.082153	NaN
1556.925659	NaN
1583.769165	NaN
1610.612793	NaN
1637.456299	NaN
1664.299805	NaN
1691.143433	NaN
1717.986938	NaN
1771.673950	NaN
1825.361084	NaN
1879.048218	NaN
1932.735229	NaN
1986.422363	NaN
2040.109497	NaN
2093.796631	NaN
2147.483643	NaN
2201.170654	NaN
2254.857910	NaN
2308.544922	NaN
2362.231934	NaN
2415.919189	NaN
2469.606201	NaN
2523.293213	NaN
2576.980469	NaN
2630.667480	NaN
2684.354492	NaN
2738.041748	NaN
2791.728760	NaN
2845.415771	NaN
2899.103027	NaN
2952.790039	NaN
3006.477051	NaN
3060.164307	NaN
3113.851318	NaN
3167.538330	NaN
3221.225586	NaN
3274.912598	NaN
3328.599609	NaN
3382.286865	NaN
3435.973877	NaN
0.000000	NaN
0.000000	NaN
0.000000	NaN
0.000000	NaN
0.000000	NaN
0.000000	NaN
0.000000	NaN
0.000000	NaN
0.000000	NaN
0.000000	NaN
0.000000	NaN
0.000000	NaN
0.000000	NaN
0.000000	NaN
0.000000	NaN
0.000000	NaN
0.000000	NaN
0.000000	NaN
0.000000	NaN
0.000000	NaN
0.000000	NaN
0.000000	NaN
0.000000	NaN
0.000000	NaN
0.000000	NaN
0.000000	NaN
0.000000	NaN
0.000000	NaN
0.000000	NaN
0.000000	NaN
0.000000	NaN
0.000000	NaN

Count Rate History (KHz)  CR CHA / CR CHB
0.000000	40.578842	45.032501
0.104858	49.095154	51.555634
0.209715	41.503906	44.546127
0.314573	39.434433	41.255951
0.419430	39.377213	40.149689
0.524288	46.453476	51.107407
0.629146	42.209625	44.908524
0.734003	41.923523	46.443939
0.838861	54.788589	59.499741
0.943718	45.738220	47.817230
1.048576	44.250488	47.245026
1.153434	47.073364	50.010681
1.258291	47.254562	53.167343
1.363149	54.597855	63.171387
1.468006	52.576065	55.332184
1.572864	42.934418	44.584274
1.677722	39.186478	41.980743
1.782579	44.755936	47.445297
1.887437	46.911240	55.027008
1.992294	40.779114	41.093826
2.097152	38.776398	39.911270
2.202010	45.299530	47.769547
2.306867	39.749146	43.954849
2.411725	39.796829	44.860840
2.516582	45.080185	47.254562
2.621440	46.539307	50.640106
2.726298	37.794113	39.129257
2.831155	39.892197	42.657852
2.936013	52.433014	54.674149
3.040870	46.091080	48.503876
3.145728	47.330856	51.040649
3.250586	43.821335	46.386719
3.355443	47.111511	50.878525
3.460301	48.360825	52.204132
3.565158	54.798126	58.708191
3.670016	42.228699	44.937134
3.774874	45.967102	49.791336
3.879731	40.340424	42.982101
3.984589	46.062469	50.487518
4.089446	44.298172	49.638748
4.194304	44.050217	41.599274
4.299162	36.611557	38.967133
4.404019	42.991638	47.225952
4.508877	37.889481	39.024353
4.613734	41.303635	45.309067
4.718592	38.700104	40.712357
4.823450	39.196014	42.905807
4.928307	43.058395	45.642853
5.033165	39.796829	42.591095
5.138022	47.569275	51.517487
5.242880	44.364929	47.283173
5.347738	39.587021	42.381287
5.452595	46.100616	50.945282
5.557453	47.712326	49.343109
5.662310	43.773651	45.089722
5.767168	42.457581	44.603348
5.872026	45.051575	51.412582
5.976883	49.381256	52.080154
6.081741	44.002533	47.683716
6.186598	42.629242	44.460297
6.291456	38.642883	41.036606
6.396314	41.532516	43.668747
6.501171	42.982101	47.531128
6.606029	46.329498	50.048828
6.710886	44.593811	47.273636
6.815744	42.085648	43.840408
6.920602	53.005219	58.708191
7.025459	47.655106	53.844452
7.130317	46.834946	51.975250
7.235174	36.640167	38.194656
7.340032	44.374466	50.115585
7.444890	41.713715	44.918060
7.549747	43.268204	46.701431
7.654605	37.307739	40.369034
7.759462	50.697327	51.193237
7.864320	44.956207	48.017502
7.969178	47.121048	49.858093
8.074035	43.134689	46.663284
8.178893	40.807724	43.821335
8.283750	42.743683	45.785904
8.388608	45.185089	49.676895
8.493466	40.016174	43.115616
8.598323	41.923523	44.078827
8.703181	37.355423	39.272308
8.808038	37.412643	38.862228
8.912896	38.232803	39.710999
9.017754	43.373108	47.769547
9.122611	40.454865	43.001175
9.227469	43.601990	48.723221
9.332326	42.009354	45.833588
9.437184	46.501160	47.912598
9.542042	40.225983	42.371750
9.646899	37.498474	40.798187
9.751757	42.705536	47.502518
9.856614	41.770935	45.194626
9.961472	46.834946	49.867630
10.066330	37.012100	37.317276
10.171187	41.351318	43.821335
10.276045	40.092468	42.114258
10.380902	40.912628	44.717789
10.485760	41.570663	43.125153
10.590618	47.588348	51.774979
10.695475	46.272278	49.228668
10.800333	44.374466	50.601959
10.905190	45.804977	48.389435
11.010048	43.601990	47.235489
11.114906	46.577454	48.122406
11.219763	44.622421	46.463013
11.324621	43.792725	48.418045
11.429478	43.621063	45.766830
11.534336	46.281815	51.765442
11.639194	39.424896	40.330887
11.744051	36.973953	35.820007
11.848909	44.212341	49.724579
11.953766	39.615631	41.637421
12.058624	41.189194	46.033859
12.163482	46.014786	48.398972
12.268339	39.682388	42.047501
12.373197	38.785934	40.054321
12.478054	51.317215	57.630539
12.582912	44.126511	48.055649
12.687770	36.783218	39.205551
12.792627	39.663315	43.373108
12.897485	43.115616	45.957565
13.002342	37.002563	37.574768
13.107200	38.108826	39.653778
13.212058	37.631989	42.276382
13.316915	48.360825	54.407120
13.421773	39.548874	40.988922
13.526630	43.153763	47.130585
13.631488	35.543442	38.900375
13.736346	45.490265	48.694611
13.841203	43.210983	45.747757
13.946061	37.841797	37.508011
14.050918	39.253235	40.416718
14.155776	48.694611	54.512024
14.260634	48.599243	54.330826
14.365491	59.862137	65.374374
14.470349	63.600540	70.381165
14.575206	85.306168	97.360611
14.680064	96.378326	111.618042
14.784922	65.412521	72.908401
14.889779	65.793991	71.716309
14.994637	99.954605	117.511749
15.099494	139.884949	164.422989
15.204352	92.172623	105.829239
15.309210	166.006088	196.437836
15.414067	91.714859	99.296570
15.518925	44.498444	45.661926
15.623782	47.597885	50.611496
15.728640	55.150986	62.465668
15.833498	56.552887	62.122345
15.938355	40.683746	44.593811
16.043213	43.430328	45.270920
16.148070	43.544769	46.329498
16.252928	39.224625	41.065216
16.357786	40.369034	39.691925
16.462643	38.881302	42.171478
16.567501	41.799545	46.396255
16.672358	39.291382	41.551590
16.777216	40.960312	44.460297
16.882074	40.454865	43.687820
16.986931	43.706894	45.719147
17.091789	43.821335	47.245026
17.196646	35.886765	38.585663
17.301504	46.005249	48.999786
17.406362	39.377213	44.460297
17.511219	38.490295	40.235519
17.616077	40.388107	42.123795
17.720934	46.758652	51.898956
17.825792	41.732788	42.667389
17.930650	40.216446	44.679642
18.035507	50.783157	55.418015
18.140365	47.330856	50.182343
18.245222	48.360825	52.499771
18.350080	46.176910	50.306320
18.454938	41.103363	45.270920
18.559795	42.142868	46.749115
18.664653	41.542053	46.596527
18.769510	39.319992	43.935776
18.874368	44.832230	45.566559
18.979226	45.413971	49.629211
19.084083	43.935776	46.911240
19.188941	42.028427	45.261383
19.293798	38.833618	42.715073
19.398656	48.542023	49.047470
19.503514	36.716461	39.472580
19.608371	36.544800	40.884018
19.713229	47.483444	50.106049
