1/9/2026	10:56 AM
Pseudo Cross Correlation
Scattering angle:	90.0
Duration (s):	20
Wavelength (nm):	632.8
Refractive index:	1.330
Viscosity (mPas):	0.774
Temperature (K):	304.6
Laser intensity (mW):	8.500175
Average Count rate  A (kHz):	111.4
Average Count rate  B (kHz):	114.6
Intercept:	0.9267
Cumulant 1st	130.14
Cumulant 2nd	110.95	40.86
Cumulant 3rd	114.15	30.17

Lag time (s)         g2-1
1.250000E-8	0.928074
2.500000E-8	0.955275
3.750000E-8	0.916688
5.000000E-8	0.918270
6.250000E-8	0.912576
7.500000E-8	0.923330
8.750000E-8	0.927758
1.000000E-7	0.878734
1.125000E-7	0.939144
1.250000E-7	0.934400
1.375000E-7	0.927758
1.500000E-7	0.900874
1.625000E-7	0.921432
1.750000E-7	0.905934
1.875000E-7	0.963815
2.000000E-7	0.904037
2.125000E-7	0.916688
2.250000E-7	0.912576
2.375000E-7	0.906251
2.500000E-7	0.881897
2.625000E-7	0.870194
2.750000E-7	0.942940
2.875000E-7	0.948000
3.000000E-7	0.921116
3.125000E-7	0.960652
3.250000E-7	0.891702
3.375000E-7	0.894548
3.500000E-7	0.883478
3.625000E-7	0.911628
3.750000E-7	0.930288
3.875000E-7	0.930921
4.000000E-7	0.947368
4.125000E-7	0.894548
4.250000E-7	0.912893
4.375000E-7	0.922381
4.500000E-7	0.909730
4.625000E-7	0.959703
4.750000E-7	0.924911
4.875000E-7	0.902455
5.000000E-7	0.987852
5.125000E-7	0.910362
5.250000E-7	0.916372
5.375000E-7	0.897711
5.500000E-7	0.938828
5.625000E-7	0.898660
5.750000E-7	0.947051
5.875000E-7	0.921432
6.000000E-7	0.919851
6.125000E-7	0.886641
6.250000E-7	0.952428
6.375000E-7	0.873990
6.500000E-7	0.918586
6.625000E-7	0.954959
6.750000E-7	0.949582
6.875000E-7	0.966661
7.000000E-7	0.922697
7.125000E-7	0.930605
7.250000E-7	0.899609
7.375000E-7	0.960968
7.500000E-7	0.905302
7.625000E-7	0.943572
7.750000E-7	0.959703
7.875000E-7	0.903720
8.000000E-7	0.917637
8.250000E-7	0.936456
8.500000E-7	0.892018
8.750000E-7	0.907358
9.000000E-7	0.927284
9.250000E-7	0.936772
9.500000E-7	0.950214
9.750000E-7	0.932186
1.000000E-6	0.918270
1.025000E-6	0.931079
1.050000E-6	0.948317
1.075000E-6	0.904037
1.100000E-6	0.926967
1.125000E-6	0.951954
1.150000E-6	0.895023
1.175000E-6	0.926493
1.200000E-6	0.935665
1.225000E-6	0.922539
1.250000E-6	0.941042
1.275000E-6	0.916214
1.300000E-6	0.904511
1.325000E-6	0.937721
1.350000E-6	0.940409
1.375000E-6	0.938986
1.400000E-6	0.943256
1.425000E-6	0.940884
1.450000E-6	0.931870
1.475000E-6	0.929339
1.500000E-6	0.931237
1.525000E-6	0.942782
1.550000E-6	0.934716
1.575000E-6	0.926651
1.600000E-6	0.938670
1.650000E-6	0.935112
1.700000E-6	0.924674
1.750000E-6	0.920404
1.800000E-6	0.928470
1.850000E-6	0.932898
1.900000E-6	0.932660
1.950000E-6	0.921432
2.000000E-6	0.915739
2.050000E-6	0.931158
2.100000E-6	0.937405
2.150000E-6	0.920563
2.200000E-6	0.936140
2.250000E-6	0.936377
2.300000E-6	0.925544
2.350000E-6	0.910441
2.400000E-6	0.930605
2.450000E-6	0.912893
2.500000E-6	0.911944
2.550000E-6	0.926651
2.600000E-6	0.935744
2.650000E-6	0.919218
2.700000E-6	0.926256
2.750000E-6	0.943730
2.800000E-6	0.923646
2.850000E-6	0.925228
2.900000E-6	0.919297
2.950000E-6	0.921037
3.000000E-6	0.918428
3.050000E-6	0.907674
3.100000E-6	0.927837
3.150000E-6	0.941121
3.200000E-6	0.938670
3.300000E-6	0.922737
3.400000E-6	0.917163
3.500000E-6	0.919376
3.600000E-6	0.917439
3.700000E-6	0.920444
3.800000E-6	0.919258
3.900000E-6	0.927402
4.000000E-6	0.917083
4.100000E-6	0.932265
4.200000E-6	0.920049
4.300000E-6	0.935428
4.400000E-6	0.905697
4.500000E-6	0.929023
4.600000E-6	0.922777
4.700000E-6	0.927521
4.800000E-6	0.925109
4.900000E-6	0.901862
5.000000E-6	0.907951
5.100000E-6	0.907239
5.200000E-6	0.939026
5.300000E-6	0.930684
5.400000E-6	0.931079
5.500000E-6	0.921907
5.600000E-6	0.905618
5.700000E-6	0.919890
5.800000E-6	0.920088
5.900000E-6	0.909927
6.000000E-6	0.926414
6.100000E-6	0.930051
6.200000E-6	0.901823
6.300000E-6	0.902020
6.400000E-6	0.923923
6.600000E-6	0.916293
6.800000E-6	0.912576
7.000000E-6	0.913466
7.200000E-6	0.917756
7.400000E-6	0.903424
7.600000E-6	0.919337
7.800000E-6	0.908326
8.000000E-6	0.911390
8.200000E-6	0.917439
8.400000E-6	0.920681
8.600000E-6	0.905045
8.800000E-6	0.912221
9.000000E-6	0.912636
9.200000E-6	0.900360
9.400000E-6	0.906013
9.600000E-6	0.919554
9.800000E-6	0.908030
1.000000E-5	0.906863
1.020000E-5	0.914178
1.040000E-5	0.903384
1.060000E-5	0.908682
1.080000E-5	0.905144
1.100000E-5	0.904373
1.120000E-5	0.906310
1.140000E-5	0.909275
1.160000E-5	0.904056
1.180000E-5	0.912043
1.200000E-5	0.903582
1.220000E-5	0.903226
1.240000E-5	0.899411
1.260000E-5	0.905045
1.280000E-5	0.897217
1.320000E-5	0.904679
1.360000E-5	0.909028
1.400000E-5	0.899678
1.440000E-5	0.895705
1.480000E-5	0.898512
1.520000E-5	0.905460
1.560000E-5	0.902564
1.600000E-5	0.904600
1.640000E-5	0.899648
1.680000E-5	0.893214
1.720000E-5	0.890436
1.760000E-5	0.896614
1.800000E-5	0.897839
1.840000E-5	0.886335
1.880000E-5	0.899599
1.920000E-5	0.888045
1.960000E-5	0.888647
2.000000E-5	0.896663
2.040000E-5	0.887926
2.080000E-5	0.891968
2.120000E-5	0.890209
2.160000E-5	0.887995
2.200000E-5	0.887234
2.240000E-5	0.888549
2.280000E-5	0.884842
2.320000E-5	0.884842
2.360000E-5	0.890278
2.400000E-5	0.883587
2.440000E-5	0.889171
2.480000E-5	0.884852
2.520000E-5	0.886829
2.560000E-5	0.882944
2.640000E-5	0.879016
2.720000E-5	0.883063
2.800000E-5	0.880246
2.880000E-5	0.882070
2.960000E-5	0.873540
3.040000E-5	0.866898
3.120000E-5	0.874736
3.200000E-5	0.872097
3.280000E-5	0.870930
3.360000E-5	0.869300
3.440000E-5	0.870071
3.520000E-5	0.864718
3.600000E-5	0.865193
3.680000E-5	0.868217
3.760000E-5	0.861654
3.840000E-5	0.867016
3.920000E-5	0.860256
4.000000E-5	0.855956
4.080000E-5	0.860953
4.160000E-5	0.852364
4.240000E-5	0.855116
4.320000E-5	0.860646
4.400000E-5	0.853772
4.480000E-5	0.849344
4.560000E-5	0.854340
4.640000E-5	0.849937
4.720000E-5	0.846794
4.800000E-5	0.855457
4.880000E-5	0.846527
4.960000E-5	0.850001
5.040000E-5	0.844125
5.120000E-5	0.844970
5.280000E-5	0.837928
5.440000E-5	0.841536
5.600000E-5	0.838371
5.760000E-5	0.832990
5.920000E-5	0.826813
6.080000E-5	0.831418
6.240000E-5	0.830688
6.400000E-5	0.821776
6.560000E-5	0.823033
6.720000E-5	0.820929
6.880000E-5	0.817623
7.040000E-5	0.818133
7.200000E-5	0.810143
7.360000E-5	0.813305
7.520000E-5	0.806568
7.680000E-5	0.809673
7.840000E-5	0.803018
8.000000E-5	0.805089
8.160000E-5	0.796198
8.320000E-5	0.797141
8.480000E-5	0.793230
8.640000E-5	0.791369
8.800000E-5	0.791922
8.960000E-5	0.788414
9.120000E-5	0.784402
9.280000E-5	0.782575
9.440000E-5	0.777202
9.600000E-5	0.782740
9.760000E-5	0.778000
9.920000E-5	0.779149
0.000101	0.774714
0.000102	0.773317
0.000106	0.768450
0.000109	0.764642
0.000112	0.759303
0.000115	0.755886
0.000118	0.751989
0.000122	0.748917
0.000125	0.742480
0.000128	0.738598
0.000131	0.735861
0.000134	0.731993
0.000138	0.725416
0.000141	0.721980
0.000144	0.720199
0.000147	0.716121
0.000150	0.712663
0.000154	0.706567
0.000157	0.705700
0.000160	0.698128
0.000163	0.695419
0.000166	0.691773
0.000170	0.686542
0.000173	0.686303
0.000176	0.677351
0.000179	0.676639
0.000182	0.674140
0.000186	0.669317
0.000189	0.663755
0.000192	0.660018
0.000195	0.656290
0.000198	0.655029
0.000202	0.651896
0.000205	0.648455
0.000211	0.643243
0.000218	0.634938
0.000224	0.626796
0.000230	0.621085
0.000237	0.613825
0.000243	0.605784
0.000250	0.597352
0.000256	0.595732
0.000262	0.585828
0.000269	0.581757
0.000275	0.574548
0.000282	0.567108
0.000288	0.562611
0.000294	0.555634
0.000301	0.551427
0.000307	0.544728
0.000314	0.538659
0.000320	0.532554
0.000326	0.527942
0.000333	0.523365
0.000339	0.514327
0.000346	0.509903
0.000352	0.506119
0.000358	0.500848
0.000365	0.494271
0.000371	0.489903
0.000378	0.483475
0.000384	0.479058
0.000390	0.474901
0.000397	0.468550
0.000403	0.463217
0.000410	0.456485
0.000422	0.448273
0.000435	0.439917
0.000448	0.430720
0.000461	0.422850
0.000474	0.413587
0.000486	0.405216
0.000499	0.396963
0.000512	0.388799
0.000525	0.380329
0.000538	0.373408
0.000550	0.366204
0.000563	0.359482
0.000576	0.352024
0.000589	0.345338
0.000602	0.339129
0.000614	0.331686
0.000627	0.325572
0.000640	0.320043
0.000653	0.312935
0.000666	0.306258
0.000678	0.300390
0.000691	0.295725
0.000704	0.289446
0.000717	0.283971
0.000730	0.278186
0.000742	0.273061
0.000755	0.267780
0.000768	0.263824
0.000781	0.258113
0.000794	0.252812
0.000806	0.248010
0.000819	0.243912
0.000845	0.234110
0.000870	0.226387
0.000896	0.218184
0.000922	0.210503
0.000947	0.201747
0.000973	0.195997
0.000998	0.188363
0.001024	0.181265
0.001050	0.175575
0.001075	0.168921
0.001101	0.163825
0.001126	0.157380
0.001152	0.152675
0.001178	0.146311
0.001203	0.142326
0.001229	0.136807
0.001254	0.133016
0.001280	0.129696
0.001306	0.125127
0.001331	0.121190
0.001357	0.117261
0.001382	0.114417
0.001408	0.111798
0.001434	0.107630
0.001459	0.105667
0.001485	0.103519
0.001510	0.099844
0.001536	0.098371
0.001562	0.096870
0.001587	0.094331
0.001613	0.092239
0.001638	0.089827
0.001690	0.087766
0.001741	0.084836
0.001792	0.082850
0.001843	0.079401
0.001894	0.077027
0.001946	0.074424
0.001997	0.072056
0.002048	0.069874
0.002099	0.067899
0.002150	0.065681
0.002202	0.064310
0.002253	0.061760
0.002304	0.059768
0.002355	0.058315
0.002406	0.056011
0.002458	0.053871
0.002509	0.051934
0.002560	0.050383
0.002611	0.048868
0.002662	0.048578
0.002714	0.047649
0.002765	0.046985
0.002816	0.046604
0.002867	0.045598
0.002918	0.045718
0.002970	0.044993
0.003021	0.045442
0.003072	0.045669
0.003123	0.044863
0.003174	0.044475
0.003226	0.043911
0.003277	0.044153
0.003379	0.043698
0.003482	0.044950
0.003584	0.045466
0.003686	0.045023
0.003789	0.045189
0.003891	0.043711
0.003994	0.042906
0.004096	0.043805
0.004198	0.042763
0.004301	0.043062
0.004403	0.043029
0.004506	0.042661
0.004608	0.042105
0.004710	0.040755
0.004813	0.039307
0.004915	0.038199
0.005018	0.036409
0.005120	0.034725
0.005222	0.032734
0.005325	0.030829
0.005427	0.030261
0.005530	0.029004
0.005632	0.029636
0.005734	0.028823
0.005837	0.028733
0.005939	0.028844
0.006042	0.029739
0.006144	0.029350
0.006246	0.027806
0.006349	0.027396
0.006451	0.027577
0.006554	0.028373
0.006758	0.028872
0.006963	0.030378
0.007168	0.029273
0.007373	0.026543
0.007578	0.024981
0.007782	0.025319
0.007987	0.026444
0.008192	0.027188
0.008397	0.027832
0.008602	0.027124
0.008806	0.025649
0.009011	0.024435
0.009216	0.026161
0.009421	0.028801
0.009626	0.031139
0.009830	0.033387
0.010035	0.034954
0.010240	0.036560
0.010445	0.037090
0.010650	0.037367
0.010854	0.037508
0.011059	0.038254
0.011264	0.038589
0.011469	0.037911
0.011674	0.036359
0.011878	0.036081
0.012083	0.035827
0.012288	0.034624
0.012493	0.033796
0.012698	0.032879
0.012902	0.034120
0.013107	0.034916
0.013517	0.037232
0.013926	0.035499
0.014336	0.031852
0.014746	0.028887
0.015155	0.030156
0.015565	0.031718
0.015974	0.033871
0.016384	0.035988
0.016794	0.033928
0.017203	0.035946
0.017613	0.038047
0.018022	0.036111
0.018432	0.033234
0.018842	0.029053
0.019251	0.025759
0.019661	0.026977
0.020070	0.026285
0.020480	0.025058
0.020890	0.023062
0.021299	0.022614
0.021709	0.021885
0.022118	0.022525
0.022528	0.018156
0.022938	0.018366
0.023347	0.022744
0.023757	0.027082
0.024166	0.032307
0.024576	0.031627
0.024986	0.027877
0.025395	0.026981
0.025805	0.025227
0.026214	0.028909
0.027034	0.038209
0.027853	0.039405
0.028672	0.035487
0.029491	0.026249
0.030310	0.020671
0.031130	0.023271
0.031949	0.024208
0.032768	0.024825
0.033587	0.026723
0.034406	0.029090
0.035226	0.028927
0.036045	0.022812
0.036864	0.024765
0.037683	0.020698
0.038502	0.023940
0.039322	0.020939
0.040141	0.021120
0.040960	0.026665
0.041779	0.026135
0.042598	0.022987
0.043418	0.025902
0.044237	0.027198
0.045056	0.028665
0.045875	0.020784
0.046694	0.024496
0.047514	0.026982
0.048333	0.026823
0.049152	0.022113
0.049971	0.013702
0.050790	0.016644
0.051610	0.022388
0.052429	0.017906
0.054067	0.011144
0.055706	0.018438
0.057344	0.015110
0.058982	0.015537
0.060621	0.020569
0.062259	0.023262
0.063898	0.026557
0.065536	0.022749
0.067174	0.016325
0.068813	0.013541
0.070451	0.010449
0.072090	0.010491
0.073728	0.018070
0.075366	0.012114
0.077005	0.013052
0.078643	0.018880
0.080282	0.018690
0.081920	0.016497
0.083558	0.014239
0.085197	0.015981
0.086835	0.017128
0.088474	0.019365
0.090112	0.017115
0.091750	0.023606
0.093389	0.019256
0.095027	0.015538
0.096666	0.009133
0.098304	0.010347
0.099942	0.009891
0.101581	0.008307
0.103219	0.009241
0.104858	0.007383
0.108134	0.010849
0.111411	0.013344
0.114688	0.013111
0.117965	0.008035
0.121242	0.002122
0.124518	-0.000391
0.127795	0.001436
0.131072	-0.001115
0.134349	0.004417
0.137626	0.009874
0.140902	0.012790
0.144179	0.008910
0.147456	0.005139
0.150733	0.012025
0.154010	0.011312
0.157286	0.004099
0.160563	0.003432
0.163840	0.003272
0.167117	0.002006
0.170394	0.004765
0.173670	0.005760
0.176947	0.006460
0.180224	0.004535
0.183501	0.002464
0.186778	0.004220
0.190054	0.010895
0.193331	0.010400
0.196608	0.009060
0.199885	0.008577
0.203162	0.001488
0.206438	0.006813
0.209715	0.005041
0.216269	0.000917
0.222822	0.007028
0.229376	0.001978
0.235930	0.004275
0.242483	0.001069
0.249037	-7.178977E-5
0.255590	0.005936
0.262144	-0.000446
0.268698	0.000330
0.275251	-0.003894
0.281805	-5.501704E-5
0.288358	-0.002980
0.294912	-0.002258
0.301466	-0.000754
0.308019	-0.003307
0.314573	-0.000713
0.321126	-0.005787
0.327680	-0.001132
0.334234	-0.001274
0.340787	-0.001126
0.347341	6.700686E-5
0.353894	-0.002004
0.360448	-0.006479
0.367002	-0.000311
0.373555	-0.000266
0.380109	-0.000747
0.386662	-0.005209
0.393216	-0.003681
0.399770	-0.000266
0.406323	-0.001658
0.412877	0.003251
0.419430	-0.001067
0.432538	0.001239
0.445645	0.000928
0.458752	-0.001714
0.471859	-0.001880
0.484966	-0.001125
0.498074	-0.000994
0.511181	0.000941
0.524288	0.002235
0.537395	0.002537
0.550502	0.002359
0.563610	0.001911
0.576717	0.001091
0.589824	0.003417
0.602931	0.000513
0.616038	0.002037
0.629146	-0.000364
0.642253	0.000728
0.655360	0.001404
0.668467	0.001876
0.681574	-0.000591
0.694682	-0.003331
0.707789	-0.002469
0.720896	-0.002912
0.734003	0.001025
0.747110	-0.002091
0.760218	-0.003449
0.773325	-0.003482
0.786432	-0.005502
0.799539	-0.003941
0.812646	-0.004802
0.825754	-0.002098
0.838861	-0.001498
0.865075	-0.003827
0.891290	-0.004278
0.917504	-0.002476
0.943718	-0.000541
0.969933	-0.000735
0.996147	0.000108
1.022362	0.000618
1.048576	-0.002391
1.074790	-0.001624
1.101005	-0.006687
1.127219	-0.005085
1.153434	-0.000970
1.179648	-0.000795
1.205862	0.001226
1.232077	0.004793
1.258291	0.000618
1.284506	-0.001807
1.310720	-0.002108
1.336934	0.000583
1.363149	0.002507
1.389363	0.003126
1.415578	0.002191
1.441792	0.000506
1.468006	-0.000132
1.494221	0.001506
1.520435	-0.002145
1.546650	-0.001485
1.572864	-0.001698
1.599078	-0.002281
1.625293	0.002536
1.651507	-0.001425
1.677722	-0.002084
1.730150	-0.001400
1.782579	0.001291
1.835008	0.001462
1.887437	-0.000673
1.939866	0.000469
1.992294	0.002172
2.044723	0.001861
2.097152	-0.002348
2.149581	-0.001992
2.202010	0.001864
2.254438	0.002169
2.306867	0.000474
2.359296	0.001456
2.411725	0.001591
2.464154	-0.000379
2.516582	-0.001441
2.569011	0.001206
2.621440	-0.003011
2.673869	-0.000321
2.726298	-0.000148
2.778726	0.001600
2.831155	-0.000867
2.883584	0.000366
2.936013	-0.001260
2.988442	-0.000752
3.040870	0.000603
3.093299	-0.004037
3.145728	-0.003206
3.198157	-0.005416
3.250586	5.364378E-5
3.303015	-0.000560
3.355443	-0.000282
3.460301	0.001903
3.565158	0.001384
3.670016	-0.001441
3.774873	-0.000877
3.879731	-0.000701
3.984589	0.001766
4.089447	-0.000206
4.194304	-0.001561
4.299161	-0.001030
4.404019	-0.004039
4.508877	-0.003177
4.613734	-0.001875
4.718592	-0.001471
4.823450	-0.002728
4.928307	-0.001068
5.033165	0.000268
5.138022	-0.003958
5.242880	-0.003567
5.347738	-0.000795
5.452595	-0.001263
5.557453	-0.000539
5.662311	-0.002888
5.767168	-3.869298E-5
5.872025	0.000448
5.976883	0.002379
6.081741	0.001042
6.186598	-0.000576
6.291456	0.003011
6.396314	7.895059E-5
6.501171	-0.001163
6.606029	-0.002639
6.710886	-0.002611
6.920601	-0.002918
7.130317	-0.003805
7.340032	-0.000687
7.549747	-0.003108
7.759462	0.007536
7.969178	0.006352
8.178893	0.001181
8.388608	0.000756
8.598323	3.985391E-5
8.808039	0.000295
9.017754	-0.000119
9.227468	0.001390
9.437184	-0.000384
9.646899	0.003423
9.856614	-0.002568
10.066330	0.000179
10.276045	0.004655
10.485760	-0.000163
10.695476	-0.000656
10.905190	-0.000693
11.114905	0.000239
11.324621	0.001350
11.534336	-0.000875
11.744051	0.001714
11.953767	1.888600E-5
12.163482	0.001151
12.373197	0.001732
12.582912	0.000890
12.792627	-0.000142
13.002342	-0.001234
13.212058	-0.001397
13.421773	-0.002921
13.841203	-0.000270
14.260633	0.001596
14.680064	-3.560520E-5
15.099494	-0.001444
15.518925	-0.001642
15.938355	-0.001164
16.357786	-0.001926
16.777216	0.000656
17.196646	0.001412
17.616077	0.002308
18.035507	9.381003E-5
18.454937	8.758289E-5
18.874369	0.000000
19.293798	NaN
19.713228	NaN
20.132660	NaN
20.552090	NaN
20.971519	NaN
21.390951	NaN
21.810381	NaN
22.229811	NaN
22.649242	NaN
23.068672	NaN
23.488102	NaN
23.907534	NaN
24.326963	NaN
24.746393	NaN
25.165825	NaN
25.585255	NaN
26.004684	NaN
26.424116	NaN
26.843546	NaN
27.682405	NaN
28.521267	NaN
29.360128	NaN
30.198988	NaN
31.037849	NaN
31.876711	NaN
32.715572	NaN
33.554432	NaN
34.393291	NaN
35.232155	NaN
36.071014	NaN
36.909874	NaN
37.748737	NaN
38.587597	NaN
39.426456	NaN
40.265320	NaN
41.104179	NaN
41.943039	NaN
42.781902	NaN
43.620762	NaN
44.459621	NaN
45.298485	NaN
46.137344	NaN
46.976204	NaN
47.815067	NaN
48.653927	NaN
49.492786	NaN
50.331650	NaN
51.170509	NaN
52.009369	NaN
52.848232	NaN
53.687092	NaN
55.364811	NaN
57.042534	NaN
58.720257	NaN
60.397976	NaN
62.075699	NaN
63.753422	NaN
65.431145	NaN
67.108864	NaN
68.786583	NaN
70.464310	NaN
72.142029	NaN
73.819748	NaN
75.497475	NaN
77.175194	NaN
78.852913	NaN
80.530640	NaN
82.208359	NaN
83.886078	NaN
85.563805	NaN
87.241524	NaN
88.919243	NaN
90.596970	NaN
92.274689	NaN
93.952408	NaN
95.630135	NaN
97.307854	NaN
98.985573	NaN
100.663300	NaN
102.341019	NaN
104.018738	NaN
105.696465	NaN
107.374184	NaN
110.729622	NaN
114.085068	NaN
117.440514	NaN
120.795952	NaN
124.151398	NaN
127.506844	NaN
130.862289	NaN
134.217728	NaN
137.573166	NaN
140.928619	NaN
144.284058	NaN
147.639496	NaN
150.994949	NaN
154.350388	NaN
157.705826	NaN
161.061279	NaN
164.416718	NaN
167.772156	NaN
171.127609	NaN
174.483047	NaN
177.838486	NaN
181.193939	NaN
184.549377	NaN
187.904816	NaN
191.260269	NaN
194.615707	NaN
197.971146	NaN
201.326599	NaN
204.682037	NaN
208.037476	NaN
211.392929	NaN
214.748367	NaN
221.459244	NaN
228.170135	NaN
234.881027	NaN
241.591904	NaN
248.302795	NaN
255.013687	NaN
261.724579	NaN
268.435455	NaN
275.146332	NaN
281.857239	NaN
288.568115	NaN
295.278992	NaN
301.989899	NaN
308.700775	NaN
315.411652	NaN
322.122559	NaN
328.833435	NaN
335.544312	NaN
342.255219	NaN
348.966095	NaN
355.676971	NaN
362.387878	NaN
369.098755	NaN
375.809631	NaN
382.520538	NaN
389.231415	NaN
395.942291	NaN
402.653198	NaN
409.364075	NaN
416.074951	NaN
422.785858	NaN
429.496735	NaN
442.918488	NaN
456.340271	NaN
469.762054	NaN
483.183807	NaN
496.605591	NaN
510.027374	NaN
523.449158	NaN
536.870911	NaN
550.292664	NaN
563.714478	NaN
577.136230	NaN
590.557983	NaN
603.979797	NaN
617.401550	NaN
630.823303	NaN
644.245117	NaN
657.666870	NaN
671.088623	NaN
684.510437	NaN
697.932190	NaN
711.353943	NaN
724.775757	NaN
738.197510	NaN
751.619263	NaN
765.041077	NaN
778.462830	NaN
791.884583	NaN
805.306396	NaN
818.728149	NaN
832.149902	NaN
845.571716	NaN
858.993469	NaN
885.836975	NaN
912.680542	NaN
939.524109	NaN
966.367615	NaN
993.211182	NaN
1020.054749	NaN
1046.898315	NaN
1073.741821	NaN
1100.585327	NaN
1127.428955	NaN
1154.272461	NaN
1181.115967	NaN
1207.959595	NaN
1234.803101	NaN
1261.646606	NaN
1288.490234	NaN
1315.333740	NaN
1342.177246	NaN
1369.020874	NaN
1395.864380	NaN
1422.707886	NaN
1449.551514	NaN
1476.395020	NaN
1503.238525	NaN
1530.082153	NaN
1556.925659	NaN
1583.769165	NaN
1610.612793	NaN
1637.456299	NaN
1664.299805	NaN
1691.143433	NaN
1717.986938	NaN
1771.673950	NaN
1825.361084	NaN
1879.048218	NaN
1932.735229	NaN
1986.422363	NaN
2040.109497	NaN
2093.796631	NaN
2147.483643	NaN
2201.170654	NaN
2254.857910	NaN
2308.544922	NaN
2362.231934	NaN
2415.919189	NaN
2469.606201	NaN
2523.293213	NaN
2576.980469	NaN
2630.667480	NaN
2684.354492	NaN
2738.041748	NaN
2791.728760	NaN
2845.415771	NaN
2899.103027	NaN
2952.790039	NaN
3006.477051	NaN
3060.164307	NaN
3113.851318	NaN
3167.538330	NaN
3221.225586	NaN
3274.912598	NaN
3328.599609	NaN
3382.286865	NaN
3435.973877	NaN
0.000000	NaN
0.000000	NaN
0.000000	NaN
0.000000	NaN
0.000000	NaN
0.000000	NaN
0.000000	NaN
0.000000	NaN
0.000000	NaN
0.000000	NaN
0.000000	NaN
0.000000	NaN
0.000000	NaN
0.000000	NaN
0.000000	NaN
0.000000	NaN
0.000000	NaN
0.000000	NaN
0.000000	NaN
0.000000	NaN
0.000000	NaN
0.000000	NaN
0.000000	NaN
0.000000	NaN
0.000000	NaN
0.000000	NaN
0.000000	NaN
0.000000	NaN
0.000000	NaN
0.000000	NaN
0.000000	NaN
0.000000	NaN

Count Rate History (KHz)  CR CHA / CR CHB
0.000000	113.868713	115.489960
0.104858	106.096268	116.395950
0.209715	111.789703	111.188889
0.314573	108.356476	110.549927
0.419430	99.248886	101.842880
0.524288	115.518570	118.055344
0.629146	132.570267	141.696930
0.734003	107.612610	106.430054
0.838861	110.692978	114.459991
0.943718	117.378235	121.107101
1.048576	109.586716	113.162994
1.153434	104.198456	114.908218
1.258291	124.063492	118.484497
1.363149	165.281296	183.620453
1.468006	194.082260	206.670761
1.572864	135.803223	130.386353
1.677722	96.426010	98.142624
1.782579	107.173920	113.096237
1.887437	115.461349	119.762421
1.992294	128.002167	132.923126
2.097152	102.729797	105.056763
2.202010	101.213455	106.306076
2.306867	106.992722	106.697083
2.411725	107.936859	112.504959
2.516582	109.586716	111.923218
2.621440	86.374283	84.075928
2.726298	107.727051	115.890503
2.831155	111.064911	110.464096
2.936013	116.605759	121.355057
3.040870	98.447800	95.148087
3.145728	102.872849	104.188919
3.250586	124.931335	132.179260
3.355443	110.616684	110.664368
3.460301	117.292404	119.352341
3.565158	97.122192	96.492767
3.670016	110.807419	116.710663
3.774874	105.295181	108.556747
3.879731	110.368729	115.242004
3.984589	100.936890	103.607178
4.089446	110.435486	116.386414
4.194304	104.722977	106.554031
4.299162	109.996796	112.285614
4.404019	99.363327	104.856491
4.508877	103.225708	101.861954
4.613734	103.378296	108.108521
4.718592	104.856491	98.896027
4.823450	101.404190	104.694366
4.928307	102.453232	103.168488
5.033165	100.364685	102.767944
5.138022	106.334686	105.590820
5.242880	128.984451	134.344101
5.347738	123.157501	122.871399
5.452595	93.059540	96.616745
5.557453	104.160309	106.658936
5.662310	128.087997	133.352280
5.767168	105.171204	109.796524
5.872026	106.973648	106.248856
5.976883	108.423233	106.801987
6.081741	101.299286	104.036331
6.186598	104.503632	109.815598
6.291456	103.950500	113.019943
6.396314	112.304687	114.698410
6.501171	117.454529	117.959976
6.606029	118.751526	121.345520
6.710886	105.361938	110.378265
6.815744	110.464096	116.109848
6.920602	109.281540	113.992691
7.025459	138.387680	144.186020
7.130317	98.199844	100.908279
7.235174	149.984360	154.609680
7.340032	103.845596	104.036331
7.444890	120.820999	128.011703
7.549747	119.495392	121.898651
7.654605	111.207962	115.756989
7.759462	108.785629	109.815598
7.864320	122.861862	124.626160
7.969178	105.504990	114.822388
8.074035	93.936920	97.379684
8.178893	93.078613	94.871521
8.283750	105.562210	111.246109
8.388608	98.104477	99.554062
8.493466	99.544525	100.383759
8.598323	103.931427	109.233856
8.703181	124.454498	130.014420
8.808038	103.445053	105.676651
8.912896	80.184937	82.292557
9.017754	105.791092	109.405518
9.122611	122.451782	126.991272
9.227469	288.085937	315.856934
9.332326	204.830170	202.598572
9.437184	142.126083	153.360367
9.542042	125.226974	128.908157
9.646899	118.341446	118.360519
9.751757	95.081329	100.431442
9.856614	112.314224	112.352371
9.961472	116.138458	118.007660
10.066330	88.357925	90.665817
10.171187	102.834702	104.637146
10.276045	113.840103	117.778778
10.380902	106.992722	111.742020
10.485760	146.427155	153.198242
10.590618	102.024078	104.026794
10.695475	111.980438	115.909576
10.800333	116.758347	119.934082
10.905190	110.340118	115.308762
11.010048	97.160339	99.468231
11.114906	107.784271	107.774734
11.219763	109.653473	115.633011
11.324621	92.592239	87.432861
11.429478	94.680786	100.145340
11.534336	111.389160	109.977722
11.639194	110.559464	112.247467
11.744051	111.789703	121.021271
11.848909	106.582642	104.398727
11.953766	109.167099	115.823746
12.058624	117.015839	113.582611
12.163482	103.416443	112.733841
12.268339	108.947754	110.244751
12.373197	100.727081	103.559494
12.478054	93.727112	95.195770
12.582912	114.507675	118.675232
12.687770	131.092072	131.750107
12.792627	117.406845	124.530792
12.897485	108.909607	109.195709
13.002342	107.421875	113.191605
13.107200	92.229843	99.353790
13.212058	114.393234	112.056732
13.316915	120.210648	125.217438
13.421773	97.036362	101.509094
13.526630	105.113983	103.569031
13.631488	104.494095	109.338760
13.736346	114.622116	122.890472
13.841203	113.258362	114.679337
13.946061	108.146667	106.945038
14.050918	101.995468	106.220245
14.155776	117.759705	121.603012
14.260634	123.777390	130.691528
14.365491	78.897476	81.129074
14.470349	91.209412	93.564987
14.575206	112.829208	118.322372
14.680064	104.122162	107.269287
14.784922	90.904236	94.375610
14.889779	107.116699	111.265182
14.994637	103.378296	100.965500
15.099494	91.838837	98.657608
15.204352	118.465424	115.270615
15.309210	109.958649	114.660263
15.414067	109.338760	110.549927
15.518925	120.067596	127.525330
15.623782	109.243393	110.054016
15.728640	101.013184	104.207993
15.833498	121.631622	125.951767
15.938355	104.398727	108.175278
16.043213	111.961365	113.658905
16.148070	107.440948	111.551285
16.252928	106.658936	110.120773
16.357786	105.943680	107.955933
16.462643	96.445084	100.460052
16.567501	109.519958	118.513107
16.672358	103.979111	98.571777
16.777216	106.725693	105.457306
16.882074	106.697083	111.236572
16.986931	124.435425	126.256943
17.091789	85.220337	87.480545
17.196646	95.386505	98.686218
17.301504	93.736649	97.436905
17.406362	104.598999	111.541748
17.511219	131.254196	129.699707
17.616077	104.207993	105.581284
17.720934	107.564926	111.293793
17.825792	106.582642	112.266541
17.930650	103.263855	103.435516
18.035507	109.195709	111.398697
18.140365	122.919083	125.236511
18.245222	92.964172	93.145370
18.350080	119.838715	123.434067
18.454938	110.292435	115.642548
18.559795	117.397308	120.086670
18.664653	96.502304	99.554062
18.769510	118.417740	122.890472
18.874368	129.728317	134.305954
18.979226	121.297836	124.940872
19.084083	100.917816	104.293823
19.188941	98.066330	99.506378
19.293798	107.889175	112.543106
19.398656	122.013092	125.646591
19.503514	137.300491	137.453079
19.608371	116.662979	120.372772
19.713229	105.314255	105.352402
