1/9/2026	10:43 AM
Pseudo Cross Correlation
Scattering angle:	130.0
Duration (s):	20
Wavelength (nm):	632.8
Refractive index:	1.330
Viscosity (mPas):	0.773
Temperature (K):	304.6
Laser intensity (mW):	8.510617
Average Count rate  A (kHz):	88.9
Average Count rate  B (kHz):	90.3
Intercept:	0.8185
Cumulant 1st	99.99
Cumulant 2nd	113.98	50.77
Cumulant 3rd	117.78	68.65

Lag time (s)         g2-1
1.250000E-8	0.823296
2.500000E-8	0.801165
3.750000E-8	0.774507
5.000000E-8	0.815248
6.250000E-8	0.799656
7.500000E-8	0.819775
8.750000E-8	0.798147
1.000000E-7	0.788590
1.125000E-7	0.835367
1.250000E-7	0.828326
1.375000E-7	0.801165
1.500000E-7	0.845427
1.625000E-7	0.847439
1.750000E-7	0.854983
1.875000E-7	0.799656
2.000000E-7	0.791608
2.125000E-7	0.786578
2.250000E-7	0.837882
2.375000E-7	0.817763
2.500000E-7	0.766459
2.625000E-7	0.818769
2.750000E-7	0.808206
2.875000E-7	0.843918
3.000000E-7	0.822793
3.125000E-7	0.810218
3.250000E-7	0.804686
3.375000E-7	0.838385
3.500000E-7	0.817260
3.625000E-7	0.860013
3.750000E-7	0.761932
3.875000E-7	0.849954
4.000000E-7	0.855486
4.125000E-7	0.790099
4.250000E-7	0.814242
4.375000E-7	0.853977
4.500000E-7	0.815751
4.625000E-7	0.811224
4.750000E-7	0.850960
4.875000E-7	0.779537
5.000000E-7	0.829834
5.125000E-7	0.800662
5.250000E-7	0.855989
5.375000E-7	0.829332
5.500000E-7	0.812733
5.625000E-7	0.829834
5.750000E-7	0.843918
5.875000E-7	0.827823
6.000000E-7	0.784063
6.125000E-7	0.808206
6.250000E-7	0.867558
6.375000E-7	0.842409
6.500000E-7	0.855989
6.625000E-7	0.832852
6.750000E-7	0.858504
6.875000E-7	0.860013
7.000000E-7	0.794123
7.125000E-7	0.781046
7.250000E-7	0.824302
7.375000E-7	0.829332
7.500000E-7	0.821787
7.625000E-7	0.830337
7.750000E-7	0.824805
7.875000E-7	0.758412
8.000000E-7	0.806194
8.250000E-7	0.820026
8.500000E-7	0.807955
8.750000E-7	0.845427
9.000000E-7	0.826817
9.250000E-7	0.828326
9.500000E-7	0.799404
9.750000E-7	0.834110
1.000000E-6	0.827823
1.025000E-6	0.796135
1.050000E-6	0.824050
1.075000E-6	0.825308
1.100000E-6	0.810470
1.125000E-6	0.819272
1.150000E-6	0.774758
1.175000E-6	0.845930
1.200000E-6	0.797895
1.225000E-6	0.801668
1.250000E-6	0.802422
1.275000E-6	0.834110
1.300000E-6	0.836625
1.325000E-6	0.794877
1.350000E-6	0.810721
1.375000E-6	0.816506
1.400000E-6	0.835870
1.425000E-6	0.795129
1.450000E-6	0.827068
1.475000E-6	0.790099
1.500000E-6	0.821284
1.525000E-6	0.788087
1.550000E-6	0.797141
1.575000E-6	0.834613
1.600000E-6	0.805692
1.650000E-6	0.801919
1.700000E-6	0.820152
1.750000E-6	0.807703
1.800000E-6	0.816254
1.850000E-6	0.797141
1.900000E-6	0.825433
1.950000E-6	0.833230
2.000000E-6	0.817386
2.050000E-6	0.814494
2.100000E-6	0.818140
2.150000E-6	0.805566
2.200000E-6	0.804686
2.250000E-6	0.808584
2.300000E-6	0.805314
2.350000E-6	0.814494
2.400000E-6	0.796009
2.450000E-6	0.809715
2.500000E-6	0.814619
2.550000E-6	0.822290
2.600000E-6	0.822164
2.650000E-6	0.834990
2.700000E-6	0.798147
2.750000E-6	0.828200
2.800000E-6	0.834487
2.850000E-6	0.804434
2.900000E-6	0.810847
2.950000E-6	0.807703
3.000000E-6	0.818015
3.050000E-6	0.837253
3.100000E-6	0.775136
3.150000E-6	0.822793
3.200000E-6	0.816506
3.300000E-6	0.835745
3.400000E-6	0.806194
3.500000E-6	0.802737
3.600000E-6	0.819901
3.700000E-6	0.813865
3.800000E-6	0.798335
3.900000E-6	0.821158
4.000000E-6	0.808772
4.100000E-6	0.796512
4.200000E-6	0.799279
4.300000E-6	0.809212
4.400000E-6	0.807641
4.500000E-6	0.789030
4.600000E-6	0.799404
4.700000E-6	0.820655
4.800000E-6	0.811224
4.900000E-6	0.810344
5.000000E-6	0.791231
5.100000E-6	0.787584
5.200000E-6	0.779285
5.300000E-6	0.789408
5.400000E-6	0.800473
5.500000E-6	0.786013
5.600000E-6	0.799970
5.700000E-6	0.808332
5.800000E-6	0.807578
5.900000E-6	0.787773
6.000000E-6	0.806132
6.100000E-6	0.818832
6.200000E-6	0.786704
6.300000E-6	0.793117
6.400000E-6	0.811099
6.600000E-6	0.801731
6.800000E-6	0.803837
7.000000E-6	0.807515
7.200000E-6	0.809401
7.400000E-6	0.794626
7.600000E-6	0.796952
7.800000E-6	0.796418
8.000000E-6	0.800725
8.200000E-6	0.797612
8.400000E-6	0.792017
8.600000E-6	0.790256
8.800000E-6	0.801699
9.000000E-6	0.796041
9.200000E-6	0.812733
9.400000E-6	0.791860
9.600000E-6	0.785572
9.800000E-6	0.792425
1.000000E-5	0.795412
1.020000E-5	0.800379
1.040000E-5	0.785541
1.060000E-5	0.783686
1.080000E-5	0.793369
1.100000E-5	0.793714
1.120000E-5	0.801008
1.140000E-5	0.774098
1.160000E-5	0.802108
1.180000E-5	0.774947
1.200000E-5	0.783026
1.220000E-5	0.789156
1.240000E-5	0.789628
1.260000E-5	0.786295
1.280000E-5	0.789628
1.320000E-5	0.787883
1.360000E-5	0.786971
1.400000E-5	0.781989
1.440000E-5	0.781328
1.480000E-5	0.777918
1.520000E-5	0.780967
1.560000E-5	0.779631
1.600000E-5	0.777163
1.640000E-5	0.786846
1.680000E-5	0.774523
1.720000E-5	0.776676
1.760000E-5	0.772039
1.800000E-5	0.765186
1.840000E-5	0.775591
1.880000E-5	0.773878
1.920000E-5	0.774318
1.960000E-5	0.765846
2.000000E-5	0.770232
2.040000E-5	0.767355
2.080000E-5	0.769399
2.120000E-5	0.770530
2.160000E-5	0.765123
2.200000E-5	0.768927
2.240000E-5	0.759968
2.280000E-5	0.763929
2.320000E-5	0.758632
2.360000E-5	0.763787
2.400000E-5	0.764463
2.440000E-5	0.765076
2.480000E-5	0.752329
2.520000E-5	0.759936
2.560000E-5	0.758302
2.640000E-5	0.758427
2.720000E-5	0.745483
2.800000E-5	0.749224
2.880000E-5	0.751331
2.960000E-5	0.752682
3.040000E-5	0.748761
3.120000E-5	0.743802
3.200000E-5	0.741365
3.280000E-5	0.739456
3.360000E-5	0.751095
3.440000E-5	0.740933
3.520000E-5	0.736603
3.600000E-5	0.738568
3.680000E-5	0.734457
3.760000E-5	0.737263
3.840000E-5	0.731125
3.920000E-5	0.726834
4.000000E-5	0.730960
4.080000E-5	0.723958
4.160000E-5	0.724720
4.240000E-5	0.721859
4.320000E-5	0.718055
4.400000E-5	0.715053
4.480000E-5	0.718063
4.560000E-5	0.718865
4.640000E-5	0.710354
4.720000E-5	0.708672
4.800000E-5	0.711391
4.880000E-5	0.710888
4.960000E-5	0.702801
5.040000E-5	0.701237
5.120000E-5	0.702385
5.280000E-5	0.703623
5.440000E-5	0.695008
5.600000E-5	0.692569
5.760000E-5	0.686946
5.920000E-5	0.684246
6.080000E-5	0.684324
6.240000E-5	0.679778
6.400000E-5	0.676559
6.560000E-5	0.676045
6.720000E-5	0.674875
6.880000E-5	0.667138
7.040000E-5	0.666616
7.200000E-5	0.660442
7.360000E-5	0.655215
7.520000E-5	0.653896
7.680000E-5	0.651137
7.840000E-5	0.645955
8.000000E-5	0.644305
8.160000E-5	0.645087
8.320000E-5	0.639546
8.480000E-5	0.641295
8.640000E-5	0.629793
8.800000E-5	0.634560
8.960000E-5	0.628096
9.120000E-5	0.623707
9.280000E-5	0.618886
9.440000E-5	0.619420
9.600000E-5	0.615760
9.760000E-5	0.615992
9.920000E-5	0.611835
0.000101	0.609068
0.000102	0.603390
0.000106	0.597232
0.000109	0.593143
0.000112	0.587041
0.000115	0.579015
0.000118	0.576030
0.000122	0.568568
0.000125	0.560941
0.000128	0.559793
0.000131	0.553270
0.000134	0.547983
0.000138	0.546299
0.000141	0.538875
0.000144	0.533804
0.000147	0.525927
0.000150	0.522809
0.000154	0.515417
0.000157	0.512831
0.000160	0.506791
0.000163	0.499152
0.000166	0.497607
0.000170	0.490339
0.000173	0.484342
0.000176	0.480004
0.000179	0.475145
0.000182	0.472471
0.000186	0.464971
0.000189	0.462680
0.000192	0.455255
0.000195	0.453526
0.000198	0.451534
0.000202	0.442367
0.000205	0.441013
0.000211	0.429881
0.000218	0.421198
0.000224	0.414902
0.000230	0.404400
0.000237	0.397043
0.000243	0.386910
0.000250	0.378396
0.000256	0.371138
0.000262	0.360690
0.000269	0.354387
0.000275	0.347562
0.000282	0.338576
0.000288	0.330521
0.000294	0.323756
0.000301	0.319431
0.000307	0.312323
0.000314	0.301270
0.000320	0.297961
0.000326	0.290053
0.000333	0.283138
0.000339	0.274689
0.000346	0.270326
0.000352	0.267154
0.000358	0.257115
0.000365	0.254312
0.000371	0.247342
0.000378	0.241247
0.000384	0.237504
0.000390	0.230522
0.000397	0.227105
0.000403	0.220764
0.000410	0.215633
0.000422	0.206571
0.000435	0.196642
0.000448	0.186058
0.000461	0.176642
0.000474	0.170083
0.000486	0.162130
0.000499	0.153815
0.000512	0.148170
0.000525	0.139510
0.000538	0.132241
0.000550	0.127037
0.000563	0.121396
0.000576	0.116032
0.000589	0.110885
0.000602	0.106399
0.000614	0.101595
0.000627	0.096296
0.000640	0.091840
0.000653	0.088299
0.000666	0.084683
0.000678	0.080857
0.000691	0.077876
0.000704	0.074816
0.000717	0.071786
0.000730	0.068787
0.000742	0.066530
0.000755	0.064055
0.000768	0.060702
0.000781	0.059227
0.000794	0.056473
0.000806	0.055202
0.000819	0.053445
0.000845	0.049714
0.000870	0.047963
0.000896	0.045235
0.000922	0.042356
0.000947	0.040023
0.000973	0.037747
0.000998	0.037098
0.001024	0.035203
0.001050	0.034433
0.001075	0.032405
0.001101	0.031339
0.001126	0.030796
0.001152	0.029469
0.001178	0.029465
0.001203	0.028177
0.001229	0.027500
0.001254	0.027418
0.001280	0.028718
0.001306	0.027742
0.001331	0.025795
0.001357	0.025602
0.001382	0.025465
0.001408	0.023854
0.001434	0.023973
0.001459	0.022446
0.001485	0.022781
0.001510	0.022849
0.001536	0.021764
0.001562	0.021437
0.001587	0.021633
0.001613	0.020576
0.001638	0.020649
0.001690	0.022121
0.001741	0.021949
0.001792	0.023127
0.001843	0.024017
0.001894	0.025727
0.001946	0.026692
0.001997	0.027559
0.002048	0.026301
0.002099	0.025656
0.002150	0.023873
0.002202	0.023884
0.002253	0.022690
0.002304	0.021750
0.002355	0.020731
0.002406	0.021018
0.002458	0.021351
0.002509	0.020212
0.002560	0.020739
0.002611	0.020478
0.002662	0.020879
0.002714	0.021563
0.002765	0.021075
0.002816	0.021581
0.002867	0.021355
0.002918	0.022076
0.002970	0.022058
0.003021	0.021214
0.003072	0.019940
0.003123	0.019200
0.003174	0.018250
0.003226	0.019104
0.003277	0.017684
0.003379	0.018420
0.003482	0.018665
0.003584	0.018826
0.003686	0.018379
0.003789	0.018153
0.003891	0.018782
0.003994	0.019681
0.004096	0.020323
0.004198	0.020113
0.004301	0.019927
0.004403	0.020218
0.004506	0.019627
0.004608	0.020698
0.004710	0.020674
0.004813	0.021320
0.004915	0.021939
0.005018	0.021066
0.005120	0.020703
0.005222	0.019264
0.005325	0.020388
0.005427	0.019689
0.005530	0.018749
0.005632	0.018617
0.005734	0.018000
0.005837	0.018099
0.005939	0.020700
0.006042	0.021000
0.006144	0.021009
0.006246	0.020643
0.006349	0.020859
0.006451	0.019202
0.006554	0.019374
0.006758	0.019643
0.006963	0.020112
0.007168	0.019405
0.007373	0.019467
0.007578	0.020715
0.007782	0.021670
0.007987	0.022082
0.008192	0.022136
0.008397	0.024297
0.008602	0.024532
0.008806	0.024616
0.009011	0.025542
0.009216	0.025111
0.009421	0.022837
0.009626	0.025040
0.009830	0.025295
0.010035	0.024470
0.010240	0.025038
0.010445	0.026325
0.010650	0.026074
0.010854	0.023469
0.011059	0.019837
0.011264	0.015817
0.011469	0.017928
0.011674	0.018726
0.011878	0.018713
0.012083	0.016805
0.012288	0.016159
0.012493	0.017464
0.012698	0.016955
0.012902	0.016390
0.013107	0.015689
0.013517	0.016977
0.013926	0.016084
0.014336	0.016976
0.014746	0.019235
0.015155	0.016270
0.015565	0.016824
0.015974	0.014801
0.016384	0.014659
0.016794	0.016443
0.017203	0.015332
0.017613	0.014983
0.018022	0.019256
0.018432	0.021185
0.018842	0.021155
0.019251	0.019718
0.019661	0.013164
0.020070	0.012968
0.020480	0.010549
0.020890	0.015355
0.021299	0.013151
0.021709	0.016877
0.022118	0.018945
0.022528	0.018509
0.022938	0.017279
0.023347	0.013382
0.023757	0.012959
0.024166	0.017204
0.024576	0.019742
0.024986	0.018929
0.025395	0.018502
0.025805	0.018845
0.026214	0.017188
0.027034	0.015420
0.027853	0.014968
0.028672	0.014502
0.029491	0.014426
0.030310	0.014459
0.031130	0.015446
0.031949	0.016691
0.032768	0.015313
0.033587	0.020812
0.034406	0.016234
0.035226	0.013397
0.036045	0.016692
0.036864	0.017780
0.037683	0.014414
0.038502	0.015596
0.039322	0.016561
0.040141	0.012613
0.040960	0.015309
0.041779	0.017923
0.042598	0.015292
0.043418	0.016597
0.044237	0.014889
0.045056	0.016268
0.045875	0.017774
0.046694	0.015461
0.047514	0.016146
0.048333	0.013363
0.049152	0.014078
0.049971	0.016782
0.050790	0.018141
0.051610	0.014779
0.052429	0.011545
0.054067	0.018426
0.055706	0.015815
0.057344	0.016617
0.058982	0.012439
0.060621	0.013012
0.062259	0.014607
0.063898	0.012383
0.065536	0.014057
0.067174	0.011247
0.068813	0.015847
0.070451	0.015495
0.072090	0.013531
0.073728	0.007987
0.075366	0.011566
0.077005	0.011909
0.078643	0.017019
0.080282	0.009826
0.081920	0.012846
0.083558	0.014203
0.085197	0.012570
0.086835	0.012818
0.088474	0.011075
0.090112	0.010370
0.091750	0.006601
0.093389	0.010764
0.095027	0.010658
0.096666	0.011214
0.098304	0.009507
0.099942	0.013872
0.101581	0.013013
0.103219	0.012249
0.104858	0.010215
0.108134	0.009076
0.111411	0.010963
0.114688	0.008455
0.117965	0.010653
0.121242	0.007520
0.124518	0.010431
0.127795	0.008055
0.131072	0.010350
0.134349	0.010992
0.137626	0.010294
0.140902	0.006894
0.144179	0.010713
0.147456	0.009195
0.150733	0.007986
0.154010	0.008916
0.157286	0.006548
0.160563	0.008841
0.163840	0.010039
0.167117	0.008323
0.170394	0.006883
0.173670	0.006128
0.176947	0.006646
0.180224	0.009301
0.183501	0.007017
0.186778	0.006111
0.190054	0.007425
0.193331	0.008966
0.196608	0.003787
0.199885	0.008784
0.203162	0.004783
0.206438	0.005230
0.209715	0.006980
0.216269	0.005008
0.222822	0.005560
0.229376	0.006168
0.235930	0.006415
0.242483	0.004786
0.249037	0.001593
0.255590	0.003036
0.262144	0.004674
0.268698	0.003810
0.275251	0.001592
0.281805	0.001866
0.288358	0.002309
0.294912	0.005563
0.301466	0.001246
0.308019	0.001239
0.314573	0.003491
0.321126	0.001615
0.327680	0.002902
0.334234	0.000801
0.340787	0.004793
0.347341	0.002887
0.353894	-2.939245E-6
0.360448	0.001784
0.367002	0.003090
0.373555	0.003323
0.380109	0.001809
0.386662	0.001537
0.393216	0.001023
0.399770	0.003217
0.406323	0.002563
0.412877	0.002816
0.419430	0.000928
0.432538	0.000883
0.445645	0.001150
0.458752	0.001228
0.471859	0.001172
0.484966	0.001740
0.498074	0.001425
0.511181	0.000809
0.524288	0.000356
0.537395	0.001591
0.550502	-0.001111
0.563610	-0.003326
0.576717	0.001202
0.589824	-0.001598
0.602931	-0.000548
0.616038	-0.003974
0.629146	-0.000631
0.642253	0.000301
0.655360	-0.001358
0.668467	-0.001750
0.681574	-0.001341
0.694682	-0.002126
0.707789	-0.001919
0.720896	-0.001729
0.734003	-0.003549
0.747110	-0.000987
0.760218	-0.001988
0.773325	-0.001710
0.786432	-0.001197
0.799539	-0.002794
0.812646	-0.002821
0.825754	-0.000765
0.838861	-0.001713
0.865075	-0.002034
0.891290	-0.002558
0.917504	-0.001373
0.943718	-0.000712
0.969933	-0.001152
0.996147	0.000628
1.022362	-0.000681
1.048576	-0.000614
1.074790	-0.000226
1.101005	-0.001568
1.127219	-0.000394
1.153434	-0.000997
1.179648	-0.000722
1.205862	-0.001308
1.232077	-0.001625
1.258291	-0.001357
1.284506	3.132936E-5
1.310720	-0.001787
1.336934	0.000509
1.363149	0.001185
1.389363	0.001499
1.415578	0.000710
1.441792	-8.057936E-5
1.468006	0.000223
1.494221	-0.000130
1.520435	0.000534
1.546650	0.001162
1.572864	0.001100
1.599078	0.001063
1.625293	0.000515
1.651507	0.001002
1.677722	-0.001253
1.730150	0.001273
1.782579	0.000603
1.835008	0.000956
1.887437	0.000451
1.939866	0.000209
1.992294	0.000229
2.044723	0.000228
2.097152	3.814107E-5
2.149581	0.000926
2.202010	0.002081
2.254438	-0.000189
2.306867	0.002246
2.359296	0.003784
2.411725	0.003043
2.464154	0.002477
2.516582	0.002625
2.569011	0.001718
2.621440	0.001079
2.673869	0.000631
2.726298	0.001248
2.778726	0.000317
2.831155	-0.001216
2.883584	-0.001137
2.936013	0.000958
2.988442	-0.002131
3.040870	-0.002700
3.093299	-0.002885
3.145728	-0.003970
3.198157	-0.003309
3.250586	-0.003359
3.303015	-0.002433
3.355443	-0.000175
3.460301	-0.000106
3.565158	-0.001310
3.670016	-0.002204
3.774873	-0.001283
3.879731	-0.001389
3.984589	7.786847E-5
4.089447	0.000509
4.194304	-0.000640
4.299161	-0.000836
4.404019	0.000621
4.508877	0.000411
4.613734	-0.000508
4.718592	-0.001489
4.823450	-0.001621
4.928307	-0.000855
5.033165	-0.000666
5.138022	-0.000845
5.242880	-0.000872
5.347738	-0.001992
5.452595	-0.002005
5.557453	-0.002048
5.662311	-0.001614
5.767168	0.000243
5.872025	0.001320
5.976883	0.001255
6.081741	-0.000239
6.186598	0.000903
6.291456	0.001592
6.396314	0.000908
6.501171	-0.000978
6.606029	-0.001085
6.710886	-0.000276
6.920601	0.000567
7.130317	-0.000834
7.340032	-0.001417
7.549747	-0.000899
7.759462	-0.000744
7.969178	-1.056310E-5
8.178893	-0.000207
8.388608	0.000538
8.598323	0.000245
8.808039	-0.000801
9.017754	-0.001960
9.227468	-0.001802
9.437184	-0.001549
9.646899	-0.001570
9.856614	-0.001155
10.066330	0.000815
10.276045	0.004944
10.485760	0.003421
10.695476	-0.000276
10.905190	-0.000844
11.114905	-0.000945
11.324621	-0.000204
11.534336	-0.000652
11.744051	-0.002498
11.953767	-0.000433
12.163482	0.000722
12.373197	0.001845
12.582912	0.001140
12.792627	0.003366
13.002342	0.001955
13.212058	-0.000288
13.421773	-0.002554
13.841203	-0.002697
14.260633	-0.001774
14.680064	0.000750
15.099494	0.002906
15.518925	0.001518
15.938355	-0.000808
16.357786	-5.300156E-5
16.777216	0.000911
17.196646	0.000934
17.616077	0.000701
18.035507	-0.000113
18.454937	-0.000156
18.874369	0.000000
19.293798	NaN
19.713228	NaN
20.132660	NaN
20.552090	NaN
20.971519	NaN
21.390951	NaN
21.810381	NaN
22.229811	NaN
22.649242	NaN
23.068672	NaN
23.488102	NaN
23.907534	NaN
24.326963	NaN
24.746393	NaN
25.165825	NaN
25.585255	NaN
26.004684	NaN
26.424116	NaN
26.843546	NaN
27.682405	NaN
28.521267	NaN
29.360128	NaN
30.198988	NaN
31.037849	NaN
31.876711	NaN
32.715572	NaN
33.554432	NaN
34.393291	NaN
35.232155	NaN
36.071014	NaN
36.909874	NaN
37.748737	NaN
38.587597	NaN
39.426456	NaN
40.265320	NaN
41.104179	NaN
41.943039	NaN
42.781902	NaN
43.620762	NaN
44.459621	NaN
45.298485	NaN
46.137344	NaN
46.976204	NaN
47.815067	NaN
48.653927	NaN
49.492786	NaN
50.331650	NaN
51.170509	NaN
52.009369	NaN
52.848232	NaN
53.687092	NaN
55.364811	NaN
57.042534	NaN
58.720257	NaN
60.397976	NaN
62.075699	NaN
63.753422	NaN
65.431145	NaN
67.108864	NaN
68.786583	NaN
70.464310	NaN
72.142029	NaN
73.819748	NaN
75.497475	NaN
77.175194	NaN
78.852913	NaN
80.530640	NaN
82.208359	NaN
83.886078	NaN
85.563805	NaN
87.241524	NaN
88.919243	NaN
90.596970	NaN
92.274689	NaN
93.952408	NaN
95.630135	NaN
97.307854	NaN
98.985573	NaN
100.663300	NaN
102.341019	NaN
104.018738	NaN
105.696465	NaN
107.374184	NaN
110.729622	NaN
114.085068	NaN
117.440514	NaN
120.795952	NaN
124.151398	NaN
127.506844	NaN
130.862289	NaN
134.217728	NaN
137.573166	NaN
140.928619	NaN
144.284058	NaN
147.639496	NaN
150.994949	NaN
154.350388	NaN
157.705826	NaN
161.061279	NaN
164.416718	NaN
167.772156	NaN
171.127609	NaN
174.483047	NaN
177.838486	NaN
181.193939	NaN
184.549377	NaN
187.904816	NaN
191.260269	NaN
194.615707	NaN
197.971146	NaN
201.326599	NaN
204.682037	NaN
208.037476	NaN
211.392929	NaN
214.748367	NaN
221.459244	NaN
228.170135	NaN
234.881027	NaN
241.591904	NaN
248.302795	NaN
255.013687	NaN
261.724579	NaN
268.435455	NaN
275.146332	NaN
281.857239	NaN
288.568115	NaN
295.278992	NaN
301.989899	NaN
308.700775	NaN
315.411652	NaN
322.122559	NaN
328.833435	NaN
335.544312	NaN
342.255219	NaN
348.966095	NaN
355.676971	NaN
362.387878	NaN
369.098755	NaN
375.809631	NaN
382.520538	NaN
389.231415	NaN
395.942291	NaN
402.653198	NaN
409.364075	NaN
416.074951	NaN
422.785858	NaN
429.496735	NaN
442.918488	NaN
456.340271	NaN
469.762054	NaN
483.183807	NaN
496.605591	NaN
510.027374	NaN
523.449158	NaN
536.870911	NaN
550.292664	NaN
563.714478	NaN
577.136230	NaN
590.557983	NaN
603.979797	NaN
617.401550	NaN
630.823303	NaN
644.245117	NaN
657.666870	NaN
671.088623	NaN
684.510437	NaN
697.932190	NaN
711.353943	NaN
724.775757	NaN
738.197510	NaN
751.619263	NaN
765.041077	NaN
778.462830	NaN
791.884583	NaN
805.306396	NaN
818.728149	NaN
832.149902	NaN
845.571716	NaN
858.993469	NaN
885.836975	NaN
912.680542	NaN
939.524109	NaN
966.367615	NaN
993.211182	NaN
1020.054749	NaN
1046.898315	NaN
1073.741821	NaN
1100.585327	NaN
1127.428955	NaN
1154.272461	NaN
1181.115967	NaN
1207.959595	NaN
1234.803101	NaN
1261.646606	NaN
1288.490234	NaN
1315.333740	NaN
1342.177246	NaN
1369.020874	NaN
1395.864380	NaN
1422.707886	NaN
1449.551514	NaN
1476.395020	NaN
1503.238525	NaN
1530.082153	NaN
1556.925659	NaN
1583.769165	NaN
1610.612793	NaN
1637.456299	NaN
1664.299805	NaN
1691.143433	NaN
1717.986938	NaN
1771.673950	NaN
1825.361084	NaN
1879.048218	NaN
1932.735229	NaN
1986.422363	NaN
2040.109497	NaN
2093.796631	NaN
2147.483643	NaN
2201.170654	NaN
2254.857910	NaN
2308.544922	NaN
2362.231934	NaN
2415.919189	NaN
2469.606201	NaN
2523.293213	NaN
2576.980469	NaN
2630.667480	NaN
2684.354492	NaN
2738.041748	NaN
2791.728760	NaN
2845.415771	NaN
2899.103027	NaN
2952.790039	NaN
3006.477051	NaN
3060.164307	NaN
3113.851318	NaN
3167.538330	NaN
3221.225586	NaN
3274.912598	NaN
3328.599609	NaN
3382.286865	NaN
3435.973877	NaN
0.000000	NaN
0.000000	NaN
0.000000	NaN
0.000000	NaN
0.000000	NaN
0.000000	NaN
0.000000	NaN
0.000000	NaN
0.000000	NaN
0.000000	NaN
0.000000	NaN
0.000000	NaN
0.000000	NaN
0.000000	NaN
0.000000	NaN
0.000000	NaN
0.000000	NaN
0.000000	NaN
0.000000	NaN
0.000000	NaN
0.000000	NaN
0.000000	NaN
0.000000	NaN
0.000000	NaN
0.000000	NaN
0.000000	NaN
0.000000	NaN
0.000000	NaN
0.000000	NaN
0.000000	NaN
0.000000	NaN
0.000000	NaN

Count Rate History (KHz)  CR CHA / CR CHB
0.000000	82.397461	83.351135
0.104858	83.198547	85.735321
0.209715	86.870193	86.898804
0.314573	90.475082	95.987320
0.419430	81.605911	80.881119
0.524288	77.819824	78.172684
0.629146	86.898804	85.515976
0.734003	91.199875	94.089508
0.838861	87.375641	89.416504
0.943718	85.563660	86.526871
1.048576	83.408356	85.983276
1.153434	87.556839	89.159012
1.258291	85.411072	87.757111
1.363149	101.156235	100.250244
1.468006	91.495514	94.108582
1.572864	89.216232	89.054108
1.677722	86.841583	90.475082
1.782579	85.153580	87.289810
1.887437	92.830658	92.906952
1.992294	88.739395	89.101791
2.097152	97.265244	98.133087
2.202010	91.276169	94.776154
2.306867	91.047287	92.773437
2.411725	94.060898	91.609955
2.516582	83.074570	85.086823
2.621440	90.551376	91.609955
2.726298	95.367432	95.777512
2.831155	82.187653	81.005096
2.936013	79.536438	79.889297
3.040870	81.262589	82.206726
3.145728	83.694458	88.768005
3.250586	95.272064	98.075867
3.355443	84.972382	89.082718
3.460301	102.500916	104.942322
3.565158	120.353699	129.823685
3.670016	201.025009	213.327408
3.774874	168.008804	171.651840
3.879731	111.265182	113.019943
3.984589	89.416504	93.383789
4.089446	111.150742	114.812851
4.194304	82.769394	86.040497
4.299162	88.701248	90.274811
4.404019	80.661774	81.110001
4.508877	86.278915	85.897446
4.613734	85.697174	88.882446
4.718592	83.303452	83.522797
4.823450	82.082748	82.006454
4.928307	84.705353	84.114075
5.033165	86.030960	85.353851
5.138022	93.812943	95.195770
5.242880	89.654922	93.507767
5.347738	89.092255	88.729858
5.452595	88.558197	87.594986
5.557453	85.201263	88.100433
5.662310	89.960098	91.571808
5.767168	89.006424	88.348389
5.872026	93.183517	94.804764
5.976883	80.709457	81.892014
6.081741	103.921890	106.077194
6.186598	96.368790	103.359222
6.291456	94.556808	97.961426
6.396314	95.224380	95.911026
6.501171	90.751648	94.051361
6.606029	86.240768	87.413788
6.710886	85.582733	83.742142
6.815744	76.436996	76.494217
6.920602	81.377029	83.894730
7.025459	81.892014	81.157684
7.130317	94.976425	100.622177
7.235174	90.761185	89.101791
7.340032	82.340240	81.520081
7.444890	85.077286	87.108612
7.549747	81.157684	80.690384
7.654605	79.593658	78.849792
7.759462	96.626282	97.303391
7.864320	83.675385	84.819794
7.969178	77.962875	77.810287
8.074035	85.840225	85.735321
8.178893	86.708069	89.044571
8.283750	83.208084	84.209442
8.388608	85.144043	85.487366
8.493466	74.653625	76.894760
8.598323	95.348358	91.819763
8.703181	85.306168	86.450577
8.808038	83.332062	83.265305
8.912896	85.372925	86.698532
9.017754	83.293915	83.932877
9.122611	80.537796	80.156326
9.227469	80.318451	82.159042
9.332326	79.822540	81.386566
9.437184	91.724396	90.389252
9.542042	89.921951	92.964172
9.646899	97.303391	100.307465
9.751757	86.555481	85.954666
9.856614	91.466904	93.040466
9.961472	94.871521	92.935562
10.066330	97.627640	99.706650
10.171187	81.415176	80.442429
10.276045	83.961487	85.344315
10.380902	84.199905	85.201263
10.485760	93.278885	95.529556
10.590618	86.746216	85.639954
10.695475	89.797974	91.543198
10.800333	89.769363	91.810226
10.905190	82.063675	80.738068
11.010048	82.359314	85.706711
11.114906	89.168549	90.475082
11.219763	80.461502	83.322525
11.324621	81.100464	83.370209
11.429478	85.515976	87.099075
11.534336	87.833405	87.308884
11.639194	84.018707	80.986023
11.744051	86.126328	88.491440
11.848909	83.169937	86.536407
11.953766	88.615417	94.184875
12.058624	89.616776	88.329315
12.163482	88.338852	88.663101
12.268339	84.848404	88.605881
12.373197	85.401535	87.556839
12.478054	81.920624	82.683563
12.582912	82.082748	79.727173
12.687770	88.167191	87.690353
12.792627	87.499619	88.834763
12.897485	78.754425	80.423355
13.002342	92.144012	91.724396
13.107200	77.352524	79.574585
13.212058	77.171326	78.544617
13.316915	92.573166	94.985962
13.421773	86.317062	86.421967
13.526630	80.108643	80.862045
13.631488	82.035065	86.669922
13.736346	83.074570	81.377029
13.841203	98.466873	101.366043
13.946061	97.446442	103.006363
14.050918	113.325119	116.500854
14.155776	93.841553	92.420578
14.260634	77.400208	80.308914
14.365491	90.131760	93.040466
14.470349	76.169968	78.258514
14.575206	93.517303	95.415115
14.680064	90.742111	90.532303
14.784922	86.917877	88.624954
14.889779	88.863373	89.998245
14.994637	81.481934	81.110001
15.099494	87.537766	96.664429
15.204352	95.081329	92.201233
15.309210	81.930161	81.768036
15.414067	81.157684	83.045959
15.518925	84.848404	84.152222
15.623782	82.302094	84.657669
15.728640	97.932816	96.559525
15.833498	81.615448	81.424713
15.938355	99.010468	101.165771
16.043213	91.781616	91.533661
16.148070	82.263947	84.457397
16.252928	85.268021	88.691711
16.357786	91.161728	93.278885
16.462643	91.562271	95.186234
16.567501	96.025467	97.274780
16.672358	91.037750	93.984604
16.777216	98.104477	97.904205
16.882074	77.524185	80.442429
16.986931	91.800690	94.804764
17.091789	82.979202	80.261230
17.196646	92.601776	93.717575
17.301504	75.283051	74.911118
17.406362	88.195801	93.765259
17.511219	88.129044	85.172653
17.616077	78.525543	79.450607
17.720934	83.560944	86.193085
17.825792	81.233978	83.646774
17.930650	88.939667	90.236664
18.035507	90.570450	88.291168
18.140365	91.667175	91.180801
18.245222	84.056854	87.404251
18.350080	83.723068	88.443756
18.454938	103.673935	104.637146
18.559795	90.608597	89.530945
18.664653	85.554123	87.347031
18.769510	84.400177	86.841583
18.874368	88.920593	91.390610
18.979226	89.063644	87.242126
19.084083	93.154907	92.735291
19.188941	102.882385	104.103088
19.293798	96.883774	98.266602
19.398656	89.235306	90.236664
19.503514	85.649490	81.653595
19.608371	86.669922	87.213516
19.713229	85.258484	89.082718
