1/9/2026	10:40 AM
Pseudo Cross Correlation
Scattering angle:	80.0
Duration (s):	20
Wavelength (nm):	632.8
Refractive index:	1.330
Viscosity (mPas):	0.774
Temperature (K):	304.5
Laser intensity (mW):	8.507466
Average Count rate  A (kHz):	90.8
Average Count rate  B (kHz):	93.2
Intercept:	0.9242
Cumulant 1st	120.04
Cumulant 2nd	96.12	40.53
Cumulant 3rd	107.22	31.67

Lag time (s)         g2-1
1.250000E-8	0.917820
2.500000E-8	0.893972
3.750000E-8	0.927359
5.000000E-8	0.915435
6.250000E-8	0.941190
7.500000E-8	0.902080
8.750000E-8	0.886341
1.000000E-7	0.912573
1.125000E-7	0.926405
1.250000E-7	0.862493
1.375000E-7	0.924020
1.500000E-7	0.959314
1.625000E-7	0.921635
1.750000E-7	0.951206
1.875000E-7	0.891587
2.000000E-7	0.930220
2.125000E-7	0.891587
2.250000E-7	0.942144
2.375000E-7	0.941667
2.500000E-7	0.907804
2.625000E-7	0.924974
2.750000E-7	0.915912
2.875000E-7	0.891110
3.000000E-7	0.862970
3.125000E-7	0.934513
3.250000E-7	0.908281
3.375000E-7	0.941190
3.500000E-7	0.932128
3.625000E-7	0.899696
3.750000E-7	0.885387
3.875000E-7	0.881094
4.000000E-7	0.919727
4.125000E-7	0.937852
4.250000E-7	0.890633
4.375000E-7	0.876325
4.500000E-7	0.966469
4.625000E-7	0.890633
4.750000E-7	0.893972
4.875000E-7	0.899696
5.000000E-7	0.930220
5.125000E-7	0.916389
5.250000E-7	0.905896
5.375000E-7	0.909711
5.500000E-7	0.895403
5.625000E-7	0.957884
5.750000E-7	0.889680
5.875000E-7	0.838169
6.000000E-7	0.932605
6.125000E-7	0.855816
6.250000E-7	0.922589
6.375000E-7	0.925928
6.500000E-7	0.932128
6.625000E-7	0.910665
6.750000E-7	0.910188
6.875000E-7	0.931174
7.000000E-7	0.918774
7.125000E-7	0.904942
7.250000E-7	0.874894
7.375000E-7	0.944529
7.500000E-7	0.897788
7.625000E-7	0.882048
7.750000E-7	0.922112
7.875000E-7	0.855816
8.000000E-7	0.911142
8.250000E-7	0.866547
8.500000E-7	0.918535
8.750000E-7	0.926166
9.000000E-7	0.908519
9.250000E-7	0.925928
9.500000E-7	0.879902
9.750000E-7	0.961461
1.000000E-6	0.925451
1.025000E-6	0.931651
1.050000E-6	0.933082
1.075000E-6	0.910665
1.100000E-6	0.955499
1.125000E-6	0.925689
1.150000E-6	0.858678
1.175000E-6	0.929028
1.200000E-6	0.919489
1.225000E-6	0.927359
1.250000E-6	0.929982
1.275000E-6	0.917581
1.300000E-6	0.929028
1.325000E-6	0.894211
1.350000E-6	0.934990
1.375000E-6	0.951206
1.400000E-6	0.905180
1.425000E-6	0.941190
1.450000E-6	0.904227
1.475000E-6	0.876802
1.500000E-6	0.906611
1.525000E-6	0.868217
1.550000E-6	0.916389
1.575000E-6	0.920204
1.600000E-6	0.930459
1.650000E-6	0.927359
1.700000E-6	0.922708
1.750000E-6	0.893972
1.800000E-6	0.927716
1.850000E-6	0.891826
1.900000E-6	0.907684
1.950000E-6	0.919370
2.000000E-6	0.910546
2.050000E-6	0.926286
2.100000E-6	0.916270
2.150000E-6	0.896476
2.200000E-6	0.905419
2.250000E-6	0.941786
2.300000E-6	0.913169
2.350000E-6	0.865832
2.400000E-6	0.930459
2.450000E-6	0.933917
2.500000E-6	0.902915
2.550000E-6	0.917939
2.600000E-6	0.898503
2.650000E-6	0.882764
2.700000E-6	0.916389
2.750000E-6	0.914839
2.800000E-6	0.936778
2.850000E-6	0.930459
2.900000E-6	0.913766
2.950000E-6	0.914481
3.000000E-6	0.902796
3.050000E-6	0.895164
3.100000E-6	0.913766
3.150000E-6	0.908758
3.200000E-6	0.950491
3.300000E-6	0.907386
3.400000E-6	0.916985
3.500000E-6	0.915196
3.600000E-6	0.904942
3.700000E-6	0.923483
3.800000E-6	0.892959
3.900000E-6	0.912812
4.000000E-6	0.916270
4.100000E-6	0.907029
4.200000E-6	0.908102
4.300000E-6	0.898145
4.400000E-6	0.922947
4.500000E-6	0.916270
4.600000E-6	0.917462
4.700000E-6	0.931293
4.800000E-6	0.915971
4.900000E-6	0.910606
5.000000E-6	0.894151
5.100000E-6	0.912514
5.200000E-6	0.909175
5.300000E-6	0.902140
5.400000E-6	0.907565
5.500000E-6	0.920085
5.600000E-6	0.915137
5.700000E-6	0.887533
5.800000E-6	0.914839
5.900000E-6	0.899576
6.000000E-6	0.886818
6.100000E-6	0.907804
6.200000E-6	0.900471
6.300000E-6	0.913646
6.400000E-6	0.905955
6.600000E-6	0.900262
6.800000E-6	0.908966
7.000000E-6	0.897996
7.200000E-6	0.903183
7.400000E-6	0.906194
7.600000E-6	0.916061
7.800000E-6	0.895224
8.000000E-6	0.911619
8.200000E-6	0.909801
8.400000E-6	0.906283
8.600000E-6	0.913527
8.800000E-6	0.895969
9.000000E-6	0.903541
9.200000E-6	0.896089
9.400000E-6	0.917820
9.600000E-6	0.897877
9.800000E-6	0.904674
1.000000E-5	0.894807
1.020000E-5	0.900023
1.040000E-5	0.897847
1.060000E-5	0.918744
1.080000E-5	0.899845
1.100000E-5	0.885864
1.120000E-5	0.893227
1.140000E-5	0.902319
1.160000E-5	0.915047
1.180000E-5	0.910457
1.200000E-5	0.914093
1.220000E-5	0.899397
1.240000E-5	0.904972
1.260000E-5	0.890365
1.280000E-5	0.895224
1.320000E-5	0.911112
1.360000E-5	0.897877
1.400000E-5	0.904018
1.440000E-5	0.897087
1.480000E-5	0.901395
1.520000E-5	0.908459
1.560000E-5	0.900381
1.600000E-5	0.907714
1.640000E-5	0.901588
1.680000E-5	0.889039
1.720000E-5	0.895358
1.760000E-5	0.894181
1.800000E-5	0.895969
1.840000E-5	0.894076
1.880000E-5	0.883747
1.920000E-5	0.896774
1.960000E-5	0.893868
2.000000E-5	0.893316
2.040000E-5	0.881214
2.080000E-5	0.890276
2.120000E-5	0.891990
2.160000E-5	0.897594
2.200000E-5	0.891259
2.240000E-5	0.882689
2.280000E-5	0.897683
2.320000E-5	0.892273
2.360000E-5	0.883733
2.400000E-5	0.887325
2.440000E-5	0.879082
2.480000E-5	0.880603
2.520000E-5	0.876876
2.560000E-5	0.896387
2.640000E-5	0.889113
2.720000E-5	0.880811
2.800000E-5	0.883285
2.880000E-5	0.891617
2.960000E-5	0.875244
3.040000E-5	0.874611
3.120000E-5	0.879701
3.200000E-5	0.875356
3.280000E-5	0.872435
3.360000E-5	0.871168
3.440000E-5	0.869908
3.520000E-5	0.874305
3.600000E-5	0.868440
3.680000E-5	0.866831
3.760000E-5	0.863745
3.840000E-5	0.867546
3.920000E-5	0.865362
4.000000E-5	0.867561
4.080000E-5	0.863283
4.160000E-5	0.860541
4.240000E-5	0.866197
4.320000E-5	0.867002
4.400000E-5	0.858976
4.480000E-5	0.861405
4.560000E-5	0.857381
4.640000E-5	0.860593
4.720000E-5	0.850994
4.800000E-5	0.854109
4.880000E-5	0.855361
4.960000E-5	0.857053
5.040000E-5	0.856330
5.120000E-5	0.851240
5.280000E-5	0.855037
5.440000E-5	0.846087
5.600000E-5	0.845862
5.760000E-5	0.845533
5.920000E-5	0.845057
6.080000E-5	0.839464
6.240000E-5	0.840850
6.400000E-5	0.841729
6.560000E-5	0.832869
6.720000E-5	0.836029
6.880000E-5	0.832854
7.040000E-5	0.832560
7.200000E-5	0.826054
7.360000E-5	0.825380
7.520000E-5	0.823874
7.680000E-5	0.823491
7.840000E-5	0.823588
8.000000E-5	0.823063
8.160000E-5	0.813860
8.320000E-5	0.812574
8.480000E-5	0.809428
8.640000E-5	0.806708
8.800000E-5	0.808687
8.960000E-5	0.810274
9.120000E-5	0.810557
9.280000E-5	0.804614
9.440000E-5	0.805747
9.600000E-5	0.804371
9.760000E-5	0.800579
9.920000E-5	0.801216
0.000101	0.798232
0.000102	0.797028
0.000106	0.792224
0.000109	0.785949
0.000112	0.781907
0.000115	0.782533
0.000118	0.775705
0.000122	0.774013
0.000125	0.768309
0.000128	0.762946
0.000131	0.762137
0.000134	0.756929
0.000138	0.752839
0.000141	0.747861
0.000144	0.745698
0.000147	0.744154
0.000150	0.741067
0.000154	0.734235
0.000157	0.729711
0.000160	0.726867
0.000163	0.724114
0.000166	0.721317
0.000170	0.719201
0.000173	0.714719
0.000176	0.708149
0.000179	0.706072
0.000182	0.702585
0.000186	0.704865
0.000189	0.694193
0.000192	0.691760
0.000195	0.686768
0.000198	0.684536
0.000202	0.686330
0.000205	0.680335
0.000211	0.673581
0.000218	0.667566
0.000224	0.659988
0.000230	0.652110
0.000237	0.646806
0.000243	0.638243
0.000250	0.635069
0.000256	0.627568
0.000262	0.618835
0.000269	0.613469
0.000275	0.605111
0.000282	0.601188
0.000288	0.593999
0.000294	0.590422
0.000301	0.583161
0.000307	0.577280
0.000314	0.570413
0.000320	0.563608
0.000326	0.558171
0.000333	0.552892
0.000339	0.548399
0.000346	0.540049
0.000352	0.536516
0.000358	0.529478
0.000365	0.523306
0.000371	0.520101
0.000378	0.512734
0.000384	0.509811
0.000390	0.502647
0.000397	0.495669
0.000403	0.491802
0.000410	0.485298
0.000422	0.474386
0.000435	0.465264
0.000448	0.455940
0.000461	0.445416
0.000474	0.436184
0.000486	0.427394
0.000499	0.418276
0.000512	0.410256
0.000525	0.402000
0.000538	0.394270
0.000550	0.382893
0.000563	0.376385
0.000576	0.368024
0.000589	0.361158
0.000602	0.352289
0.000614	0.347597
0.000627	0.339477
0.000640	0.332224
0.000653	0.326990
0.000666	0.319733
0.000678	0.313444
0.000691	0.305735
0.000704	0.300133
0.000717	0.293329
0.000730	0.289853
0.000742	0.284469
0.000755	0.277044
0.000768	0.274283
0.000781	0.267640
0.000794	0.264413
0.000806	0.259813
0.000819	0.254014
0.000845	0.245745
0.000870	0.237987
0.000896	0.231181
0.000922	0.223435
0.000947	0.216663
0.000973	0.210557
0.000998	0.205034
0.001024	0.198411
0.001050	0.193693
0.001075	0.188966
0.001101	0.184069
0.001126	0.178648
0.001152	0.175913
0.001178	0.169977
0.001203	0.168141
0.001229	0.163879
0.001254	0.160967
0.001280	0.157047
0.001306	0.153639
0.001331	0.150550
0.001357	0.147970
0.001382	0.143965
0.001408	0.141842
0.001434	0.137041
0.001459	0.135102
0.001485	0.132423
0.001510	0.128269
0.001536	0.125707
0.001562	0.122861
0.001587	0.119735
0.001613	0.117009
0.001638	0.114112
0.001690	0.107659
0.001741	0.101109
0.001792	0.095538
0.001843	0.088921
0.001894	0.083548
0.001946	0.075886
0.001997	0.069631
0.002048	0.064421
0.002099	0.057898
0.002150	0.052849
0.002202	0.046611
0.002253	0.041611
0.002304	0.036569
0.002355	0.033219
0.002406	0.030593
0.002458	0.028055
0.002509	0.027097
0.002560	0.025929
0.002611	0.024311
0.002662	0.023707
0.002714	0.023897
0.002765	0.025662
0.002816	0.025508
0.002867	0.026812
0.002918	0.026752
0.002970	0.027848
0.003021	0.028275
0.003072	0.028426
0.003123	0.029928
0.003174	0.030231
0.003226	0.029134
0.003277	0.028343
0.003379	0.026046
0.003482	0.022476
0.003584	0.020271
0.003686	0.017260
0.003789	0.014574
0.003891	0.012955
0.003994	0.011377
0.004096	0.011157
0.004198	0.011046
0.004301	0.011430
0.004403	0.012169
0.004506	0.013485
0.004608	0.014327
0.004710	0.014691
0.004813	0.015843
0.004915	0.016981
0.005018	0.017412
0.005120	0.017659
0.005222	0.017111
0.005325	0.015991
0.005427	0.015137
0.005530	0.012883
0.005632	0.011042
0.005734	0.008848
0.005837	0.007100
0.005939	0.005991
0.006042	0.006215
0.006144	0.005422
0.006246	0.006319
0.006349	0.007211
0.006451	0.008754
0.006554	0.009127
0.006758	0.007450
0.006963	0.005964
0.007168	0.003676
0.007373	0.004681
0.007578	0.006625
0.007782	0.010330
0.007987	0.013280
0.008192	0.016957
0.008397	0.018953
0.008602	0.019279
0.008806	0.016997
0.009011	0.012955
0.009216	0.009722
0.009421	0.008908
0.009626	0.008187
0.009830	0.006624
0.010035	0.005878
0.010240	0.005693
0.010445	0.007687
0.010650	0.009200
0.010854	0.010259
0.011059	0.013428
0.011264	0.015257
0.011469	0.017648
0.011674	0.017798
0.011878	0.015374
0.012083	0.011762
0.012288	0.009817
0.012493	0.010345
0.012698	0.012832
0.012902	0.016195
0.013107	0.017182
0.013517	0.014865
0.013926	0.010675
0.014336	0.006510
0.014746	0.006455
0.015155	0.006812
0.015565	0.006962
0.015974	0.007870
0.016384	0.005112
0.016794	0.002026
0.017203	0.001378
0.017613	0.005444
0.018022	0.009037
0.018432	0.011662
0.018842	0.009177
0.019251	0.010739
0.019661	0.014135
0.020070	0.016684
0.020480	0.015805
0.020890	0.014625
0.021299	0.013590
0.021709	0.010825
0.022118	0.007390
0.022528	0.007231
0.022938	0.007569
0.023347	0.009488
0.023757	0.008324
0.024166	0.006180
0.024576	0.006375
0.024986	0.006517
0.025395	0.006843
0.025805	0.011054
0.026214	0.012941
0.027034	0.013880
0.027853	0.019403
0.028672	0.018565
0.029491	0.015063
0.030310	0.013880
0.031130	0.011197
0.031949	0.012357
0.032768	0.004377
0.033587	-0.000968
0.034406	0.006645
0.035226	0.009023
0.036045	0.013705
0.036864	0.014716
0.037683	0.010761
0.038502	0.001782
0.039322	-9.840592E-5
0.040141	0.005796
0.040960	0.005918
0.041779	-0.001849
0.042598	0.001134
0.043418	0.006452
0.044237	0.006454
0.045056	0.003943
0.045875	0.002829
0.046694	0.004193
0.047514	0.010774
0.048333	0.011364
0.049152	0.014806
0.049971	0.013516
0.050790	0.015857
0.051610	0.014690
0.052429	0.007459
0.054067	0.003679
0.055706	0.007676
0.057344	0.012544
0.058982	0.016268
0.060621	0.015465
0.062259	0.013129
0.063898	0.007492
0.065536	0.008475
0.067174	0.005575
0.068813	0.005296
0.070451	-0.003961
0.072090	0.000244
0.073728	0.004100
0.075366	0.002675
0.077005	0.000711
0.078643	-0.001196
0.080282	0.007755
0.081920	0.005917
0.083558	0.005388
0.085197	-0.001863
0.086835	0.003558
0.088474	0.011518
0.090112	0.010314
0.091750	0.018614
0.093389	0.008925
0.095027	0.003920
0.096666	0.005094
0.098304	0.006110
0.099942	0.007824
0.101581	0.004938
0.103219	0.004849
0.104858	0.009566
0.108134	0.007880
0.111411	0.006660
0.114688	0.003149
0.117965	0.006301
0.121242	-0.000542
0.124518	0.003465
0.127795	0.001273
0.131072	0.010559
0.134349	0.001525
0.137626	-0.001851
0.140902	0.000372
0.144179	-0.002637
0.147456	0.000916
0.150733	0.016465
0.154010	0.004762
0.157286	0.006544
0.160563	0.004259
0.163840	0.003835
0.167117	0.006751
0.170394	0.004469
0.173670	0.007208
0.176947	0.010551
0.180224	0.005704
0.183501	0.000737
0.186778	0.008767
0.190054	0.011295
0.193331	0.006338
0.196608	0.003065
0.199885	0.002571
0.203162	-0.002187
0.206438	0.005389
0.209715	0.002886
0.216269	0.005966
0.222822	0.001393
0.229376	0.002863
0.235930	0.006767
0.242483	0.006232
0.249037	0.005555
0.255590	0.003616
0.262144	0.004479
0.268698	0.005314
0.275251	0.004322
0.281805	0.000711
0.288358	0.002784
0.294912	0.005403
0.301466	0.002909
0.308019	0.004323
0.314573	-0.000150
0.321126	0.002269
0.327680	0.004962
0.334234	-0.002003
0.340787	0.003595
0.347341	0.005332
0.353894	0.006757
0.360448	0.007281
0.367002	-0.002907
0.373555	-0.001451
0.380109	0.001665
0.386662	0.004663
0.393216	-0.000738
0.399770	-0.000128
0.406323	-0.000803
0.412877	0.006302
0.419430	0.001385
0.432538	-0.002708
0.445645	9.557493E-5
0.458752	0.000419
0.471859	0.001504
0.484966	0.002745
0.498074	0.004448
0.511181	0.003147
0.524288	0.002244
0.537395	-0.002704
0.550502	0.001373
0.563610	0.003889
0.576717	0.004346
0.589824	0.005918
0.602931	-0.001193
0.616038	0.004033
0.629146	0.004147
0.642253	0.001077
0.655360	0.002613
0.668467	1.581149E-5
0.681574	0.007228
0.694682	0.003609
0.707789	0.003332
0.720896	0.002795
0.734003	0.006152
0.747110	0.003463
0.760218	0.004607
0.773325	0.007035
0.786432	0.005743
0.799539	0.002830
0.812646	0.004807
0.825754	0.002310
0.838861	0.000759
0.865075	0.001625
0.891290	0.000945
0.917504	0.006079
0.943718	0.004727
0.969933	0.003847
0.996147	0.002766
1.022362	0.001722
1.048576	0.004283
1.074790	0.004032
1.101005	0.003485
1.127219	0.003540
1.153434	0.003579
1.179648	0.003162
1.205862	0.001246
1.232077	0.002542
1.258291	0.001123
1.284506	0.002676
1.310720	-0.000801
1.336934	-0.001552
1.363149	0.000917
1.389363	0.000726
1.415578	-0.001249
1.441792	-0.000731
1.468006	-0.000163
1.494221	0.002319
1.520435	-0.000536
1.546650	0.001655
1.572864	-0.004455
1.599078	-0.000518
1.625293	-0.003825
1.651507	-0.002210
1.677722	-0.002524
1.730150	0.000233
1.782579	0.000536
1.835008	-0.000381
1.887437	0.001405
1.939866	0.000751
1.992294	0.001128
2.044723	0.003323
2.097152	0.000669
2.149581	-0.001642
2.202010	-0.001394
2.254438	0.001170
2.306867	0.000415
2.359296	-0.003748
2.411725	-0.004324
2.464154	0.000207
2.516582	-0.002572
2.569011	-0.003569
2.621440	-0.003046
2.673869	-0.000365
2.726298	-0.001300
2.778726	-0.002940
2.831155	-0.000874
2.883584	0.000206
2.936013	-0.003486
2.988442	-0.003236
3.040870	0.001628
3.093299	-0.000657
3.145728	-0.003446
3.198157	-0.001069
3.250586	-0.000561
3.303015	-0.002699
3.355443	-0.001039
3.460301	-0.004737
3.565158	-0.003266
3.670016	-0.002966
3.774873	-0.001321
3.879731	-0.001973
3.984589	-0.000744
4.089447	-0.001995
4.194304	-7.837994E-5
4.299161	-0.000373
4.404019	-0.000645
4.508877	-0.000342
4.613734	-0.001096
4.718592	-0.000714
4.823450	-0.002018
4.928307	0.000682
5.033165	0.000341
5.138022	-0.000123
5.242880	-0.000684
5.347738	0.000317
5.452595	-0.002750
5.557453	0.002324
5.662311	0.001650
5.767168	-0.000608
5.872025	0.001785
5.976883	0.000206
6.081741	0.002080
6.186598	-0.001584
6.291456	0.002988
6.396314	-0.002409
6.501171	0.001568
6.606029	0.001065
6.710886	0.000412
6.920601	0.001192
7.130317	-0.000683
7.340032	-0.000797
7.549747	0.000432
7.759462	0.001373
7.969178	0.000994
8.178893	0.000511
8.388608	0.000622
8.598323	0.000150
8.808039	0.001678
9.017754	0.000740
9.227468	-0.000552
9.437184	-0.001637
9.646899	0.003345
9.856614	0.001887
10.066330	-0.000258
10.276045	0.000880
10.485760	-0.001348
10.695476	-0.000443
10.905190	-0.000189
11.114905	-0.002090
11.324621	-0.001150
11.534336	-0.001633
11.744051	-0.002422
11.953767	-0.001326
12.163482	-0.003385
12.373197	-0.002232
12.582912	-0.000975
12.792627	0.003034
13.002342	7.626243E-5
13.212058	-0.002703
13.421773	-0.001048
13.841203	0.004300
14.260633	0.001238
14.680064	0.002527
15.099494	-0.001230
15.518925	0.002868
15.938355	-0.001492
16.357786	-0.000446
16.777216	-0.001767
17.196646	-0.000875
17.616077	-0.004279
18.035507	0.000368
18.454937	-0.003629
18.874369	0.000000
19.293798	NaN
19.713228	NaN
20.132660	NaN
20.552090	NaN
20.971519	NaN
21.390951	NaN
21.810381	NaN
22.229811	NaN
22.649242	NaN
23.068672	NaN
23.488102	NaN
23.907534	NaN
24.326963	NaN
24.746393	NaN
25.165825	NaN
25.585255	NaN
26.004684	NaN
26.424116	NaN
26.843546	NaN
27.682405	NaN
28.521267	NaN
29.360128	NaN
30.198988	NaN
31.037849	NaN
31.876711	NaN
32.715572	NaN
33.554432	NaN
34.393291	NaN
35.232155	NaN
36.071014	NaN
36.909874	NaN
37.748737	NaN
38.587597	NaN
39.426456	NaN
40.265320	NaN
41.104179	NaN
41.943039	NaN
42.781902	NaN
43.620762	NaN
44.459621	NaN
45.298485	NaN
46.137344	NaN
46.976204	NaN
47.815067	NaN
48.653927	NaN
49.492786	NaN
50.331650	NaN
51.170509	NaN
52.009369	NaN
52.848232	NaN
53.687092	NaN
55.364811	NaN
57.042534	NaN
58.720257	NaN
60.397976	NaN
62.075699	NaN
63.753422	NaN
65.431145	NaN
67.108864	NaN
68.786583	NaN
70.464310	NaN
72.142029	NaN
73.819748	NaN
75.497475	NaN
77.175194	NaN
78.852913	NaN
80.530640	NaN
82.208359	NaN
83.886078	NaN
85.563805	NaN
87.241524	NaN
88.919243	NaN
90.596970	NaN
92.274689	NaN
93.952408	NaN
95.630135	NaN
97.307854	NaN
98.985573	NaN
100.663300	NaN
102.341019	NaN
104.018738	NaN
105.696465	NaN
107.374184	NaN
110.729622	NaN
114.085068	NaN
117.440514	NaN
120.795952	NaN
124.151398	NaN
127.506844	NaN
130.862289	NaN
134.217728	NaN
137.573166	NaN
140.928619	NaN
144.284058	NaN
147.639496	NaN
150.994949	NaN
154.350388	NaN
157.705826	NaN
161.061279	NaN
164.416718	NaN
167.772156	NaN
171.127609	NaN
174.483047	NaN
177.838486	NaN
181.193939	NaN
184.549377	NaN
187.904816	NaN
191.260269	NaN
194.615707	NaN
197.971146	NaN
201.326599	NaN
204.682037	NaN
208.037476	NaN
211.392929	NaN
214.748367	NaN
221.459244	NaN
228.170135	NaN
234.881027	NaN
241.591904	NaN
248.302795	NaN
255.013687	NaN
261.724579	NaN
268.435455	NaN
275.146332	NaN
281.857239	NaN
288.568115	NaN
295.278992	NaN
301.989899	NaN
308.700775	NaN
315.411652	NaN
322.122559	NaN
328.833435	NaN
335.544312	NaN
342.255219	NaN
348.966095	NaN
355.676971	NaN
362.387878	NaN
369.098755	NaN
375.809631	NaN
382.520538	NaN
389.231415	NaN
395.942291	NaN
402.653198	NaN
409.364075	NaN
416.074951	NaN
422.785858	NaN
429.496735	NaN
442.918488	NaN
456.340271	NaN
469.762054	NaN
483.183807	NaN
496.605591	NaN
510.027374	NaN
523.449158	NaN
536.870911	NaN
550.292664	NaN
563.714478	NaN
577.136230	NaN
590.557983	NaN
603.979797	NaN
617.401550	NaN
630.823303	NaN
644.245117	NaN
657.666870	NaN
671.088623	NaN
684.510437	NaN
697.932190	NaN
711.353943	NaN
724.775757	NaN
738.197510	NaN
751.619263	NaN
765.041077	NaN
778.462830	NaN
791.884583	NaN
805.306396	NaN
818.728149	NaN
832.149902	NaN
845.571716	NaN
858.993469	NaN
885.836975	NaN
912.680542	NaN
939.524109	NaN
966.367615	NaN
993.211182	NaN
1020.054749	NaN
1046.898315	NaN
1073.741821	NaN
1100.585327	NaN
1127.428955	NaN
1154.272461	NaN
1181.115967	NaN
1207.959595	NaN
1234.803101	NaN
1261.646606	NaN
1288.490234	NaN
1315.333740	NaN
1342.177246	NaN
1369.020874	NaN
1395.864380	NaN
1422.707886	NaN
1449.551514	NaN
1476.395020	NaN
1503.238525	NaN
1530.082153	NaN
1556.925659	NaN
1583.769165	NaN
1610.612793	NaN
1637.456299	NaN
1664.299805	NaN
1691.143433	NaN
1717.986938	NaN
1771.673950	NaN
1825.361084	NaN
1879.048218	NaN
1932.735229	NaN
1986.422363	NaN
2040.109497	NaN
2093.796631	NaN
2147.483643	NaN
2201.170654	NaN
2254.857910	NaN
2308.544922	NaN
2362.231934	NaN
2415.919189	NaN
2469.606201	NaN
2523.293213	NaN
2576.980469	NaN
2630.667480	NaN
2684.354492	NaN
2738.041748	NaN
2791.728760	NaN
2845.415771	NaN
2899.103027	NaN
2952.790039	NaN
3006.477051	NaN
3060.164307	NaN
3113.851318	NaN
3167.538330	NaN
3221.225586	NaN
3274.912598	NaN
3328.599609	NaN
3382.286865	NaN
3435.973877	NaN
0.000000	NaN
0.000000	NaN
0.000000	NaN
0.000000	NaN
0.000000	NaN
0.000000	NaN
0.000000	NaN
0.000000	NaN
0.000000	NaN
0.000000	NaN
0.000000	NaN
0.000000	NaN
0.000000	NaN
0.000000	NaN
0.000000	NaN
0.000000	NaN
0.000000	NaN
0.000000	NaN
0.000000	NaN
0.000000	NaN
0.000000	NaN
0.000000	NaN
0.000000	NaN
0.000000	NaN
0.000000	NaN
0.000000	NaN
0.000000	NaN
0.000000	NaN
0.000000	NaN
0.000000	NaN
0.000000	NaN
0.000000	NaN

Count Rate History (KHz)  CR CHA / CR CHB
0.000000	136.137009	142.269135
0.104858	84.791183	88.033676
0.209715	93.975067	98.114014
0.314573	91.075897	90.646744
0.419430	68.874359	70.438385
0.524288	89.015961	91.209412
0.629146	76.551437	80.327988
0.734003	89.530945	90.503693
0.838861	82.502365	82.826614
0.943718	81.443787	85.887909
1.048576	95.844269	100.173950
1.153434	96.883774	98.590851
1.258291	101.423264	104.722977
1.363149	77.857971	75.311661
1.468006	89.473724	91.009140
1.572864	77.228546	78.725815
1.677722	87.871552	89.931488
1.782579	87.146759	89.273453
1.887437	88.167191	90.045929
1.992294	80.766678	83.074570
2.097152	74.758530	74.920654
2.202010	88.272095	90.465546
2.306867	96.645355	98.066330
2.411725	66.680908	67.539215
2.516582	86.326599	86.688995
2.621440	83.408356	86.994171
2.726298	91.848373	96.015930
2.831155	86.584091	89.006424
2.936013	82.006454	84.180832
3.040870	103.759766	103.673935
3.145728	70.352554	73.261261
3.250586	104.017258	106.525421
3.355443	101.289749	106.840134
3.460301	79.460144	75.988770
3.565158	83.990097	83.808899
3.670016	83.894730	88.443756
3.774874	100.622177	108.585358
3.879731	99.439621	97.856522
3.984589	88.357925	88.787079
4.089446	81.253052	86.050034
4.194304	122.194290	126.132965
4.299162	93.612671	96.006393
4.404019	86.231232	89.416504
4.508877	76.055527	76.808929
4.613734	81.558228	83.923340
4.718592	91.228485	93.564987
4.823450	91.953278	93.717575
4.928307	97.913742	102.491379
5.033165	100.526810	105.676651
5.138022	76.828003	76.799393
5.242880	92.515945	95.138550
5.347738	79.793930	79.393387
5.452595	74.882507	80.356598
5.557453	103.378296	104.093552
5.662310	95.100403	99.525452
5.767168	81.129074	82.874298
5.872026	84.152222	84.342957
5.976883	83.885193	83.923340
6.081741	109.767914	120.286942
6.186598	102.233887	96.998215
6.291456	91.629028	95.052719
6.396314	69.904327	72.021484
6.501171	72.154999	71.516037
6.606029	85.582733	87.785721
6.710886	85.716248	92.020035
6.815744	94.718933	95.701218
6.920602	87.203979	89.673996
7.025459	86.812973	91.304779
7.130317	90.761185	89.263916
7.235174	93.984604	97.513199
7.340032	86.498260	88.500977
7.444890	74.520111	77.037811
7.549747	116.643906	120.668411
7.654605	79.412460	82.454681
7.759462	99.067688	98.829269
7.864320	92.563629	95.987320
7.969178	86.526871	89.435577
8.074035	81.233978	85.115433
8.178893	105.915070	110.559464
8.283750	93.231201	95.481873
8.388608	85.277557	87.709427
8.493466	89.387894	90.484619
8.598323	77.047348	81.205368
8.703181	76.637268	74.996948
8.808038	79.126358	82.683563
8.912896	90.017319	94.938278
9.017754	87.051392	84.686279
9.122611	91.218948	92.725754
9.227469	79.336166	78.945160
9.332326	93.736649	97.551346
9.437184	90.513229	90.494156
9.542042	84.362030	88.100433
9.646899	77.896118	79.307556
9.751757	92.458725	94.404221
9.856614	81.529617	88.529587
9.961472	83.856583	88.262558
10.066330	90.379715	91.743469
10.171187	89.435577	89.673996
10.276045	85.401535	86.231232
10.380902	85.391998	85.439682
10.485760	68.216324	68.521500
10.590618	85.878372	84.838867
10.695475	80.556870	81.634521
10.800333	91.352463	93.393326
10.905190	95.462799	97.417831
11.010048	81.443787	80.718994
11.114906	81.462860	83.074570
11.219763	95.052719	100.164413
11.324621	97.780228	101.108551
11.429478	93.593597	96.721649
11.534336	106.601715	111.942291
11.639194	83.036423	84.629059
11.744051	86.660385	88.462830
11.848909	92.163086	94.890594
11.953766	94.404221	97.599030
12.058624	78.039169	74.195862
12.163482	95.739365	100.688934
12.268339	92.563629	94.118118
12.373197	80.595016	80.747604
12.478054	90.341568	96.073151
12.582912	108.127594	110.988617
12.687770	102.567673	101.118088
12.792627	100.412369	103.416443
12.897485	112.695694	117.835999
13.002342	102.710724	106.220245
13.107200	114.679337	114.974976
13.212058	92.191696	93.231201
13.316915	96.015930	100.669861
13.421773	92.287064	94.156265
13.526630	116.500854	121.774673
13.631488	105.791092	119.724274
13.736346	121.326447	116.500854
13.841203	160.932541	167.789459
13.946061	105.066299	113.620758
14.050918	136.842728	138.893127
14.155776	98.543167	102.043152
14.260634	84.695816	89.464188
14.365491	93.622208	91.686249
14.470349	105.705261	108.623505
14.575206	102.081299	109.577179
14.680064	110.769272	110.130310
14.784922	99.363327	100.736618
14.889779	71.401596	74.024200
14.994637	100.154877	103.588104
15.099494	88.520050	87.804794
15.204352	76.446533	77.304840
15.309210	80.251694	82.311630
15.414067	78.783035	82.988739
15.518925	76.513290	79.679489
15.623782	92.191696	94.337463
15.728640	95.510483	98.257065
15.833498	121.831894	126.924515
15.938355	97.713470	99.077225
16.043213	78.067780	81.434250
16.148070	73.804855	72.269440
16.252928	80.146790	83.999634
16.357786	82.960129	81.634521
16.462643	93.030930	96.836090
16.567501	81.281662	85.163116
16.672358	90.570450	101.671219
16.777216	87.509155	83.312988
16.882074	91.047287	97.646713
16.986931	82.817078	80.261230
17.091789	91.705322	98.791122
17.196646	92.773437	96.311569
17.301504	74.300766	72.069168
17.406362	93.393326	98.037720
17.511219	84.972382	85.458755
17.616077	73.509216	71.945190
17.720934	85.048676	91.829300
17.825792	86.421967	86.603165
17.930650	91.218948	93.135834
18.035507	100.889206	102.653503
18.140365	104.570389	107.841492
18.245222	83.951950	94.509125
18.350080	88.615417	83.608627
18.454938	97.007751	103.693008
18.559795	96.311569	100.145340
18.664653	90.923309	88.958740
18.769510	85.802078	89.082718
18.874368	104.370117	104.751587
18.979226	95.615387	99.296570
19.084083	81.310272	82.731247
19.188941	113.983154	121.145248
19.293798	86.345673	84.247589
19.398656	81.310272	83.799362
19.503514	91.218948	93.097687
19.608371	99.945068	105.543137
19.713229	99.039078	96.120834
