1/9/2026	10:41 AM
Pseudo Cross Correlation
Scattering angle:	90.0
Duration (s):	20
Wavelength (nm):	632.8
Refractive index:	1.330
Viscosity (mPas):	0.774
Temperature (K):	304.5
Laser intensity (mW):	8.523986
Average Count rate  A (kHz):	80.1
Average Count rate  B (kHz):	81.6
Intercept:	0.8802
Cumulant 1st	109.80
Cumulant 2nd	104.38	24.59
Cumulant 3rd	106.28	5.81

Lag time (s)         g2-1
1.250000E-8	0.911342
2.500000E-8	0.876915
3.750000E-8	0.919949
5.000000E-8	0.892899
6.250000E-8	0.862160
7.500000E-8	0.880604
8.750000E-8	0.844947
1.000000E-7	0.848020
1.125000E-7	0.905809
1.250000E-7	0.883677
1.375000E-7	0.935319
1.500000E-7	0.887981
1.625000E-7	0.840643
1.750000E-7	0.889210
1.875000E-7	0.897203
2.000000E-7	0.918720
2.125000E-7	0.894744
2.250000E-7	0.849250
2.375000E-7	0.926097
2.500000E-7	0.902736
2.625000E-7	0.901506
2.750000E-7	0.862160
2.875000E-7	0.899047
3.000000E-7	0.909498
3.125000E-7	0.868923
3.250000E-7	0.854783
3.375000E-7	0.895973
3.500000E-7	0.853553
3.625000E-7	0.911957
3.750000E-7	0.876300
3.875000E-7	0.833266
4.000000E-7	0.886751
4.125000E-7	0.903965
4.250000E-7	0.842487
4.375000E-7	0.833266
4.500000E-7	0.868923
4.625000E-7	0.907039
4.750000E-7	0.872612
4.875000E-7	0.895358
5.000000E-7	0.936548
5.125000E-7	0.838799
5.250000E-7	0.853553
5.375000E-7	0.865234
5.500000E-7	0.861546
5.625000E-7	0.814208
5.750000E-7	0.873226
5.875000E-7	0.844947
6.000000E-7	0.886137
6.125000E-7	0.830807
6.250000E-7	0.881218
6.375000E-7	0.821585
6.500000E-7	0.880604
6.625000E-7	0.822815
6.750000E-7	0.838184
6.875000E-7	0.947000
7.000000E-7	0.939622
7.125000E-7	0.906424
7.250000E-7	0.852939
7.375000E-7	0.857242
7.500000E-7	0.860931
7.625000E-7	0.929786
7.750000E-7	0.895973
7.875000E-7	0.804986
8.000000E-7	0.848020
8.250000E-7	0.895973
8.500000E-7	0.897203
8.750000E-7	0.871382
9.000000E-7	0.882755
9.250000E-7	0.862468
9.500000E-7	0.885214
9.750000E-7	0.866464
1.000000E-6	0.874763
1.025000E-6	0.939007
1.050000E-6	0.877837
1.075000E-6	0.893821
1.100000E-6	0.891362
1.125000E-6	0.847406
1.150000E-6	0.907346
1.175000E-6	0.911035
1.200000E-6	0.870152
1.225000E-6	0.873534
1.250000E-6	0.910728
1.275000E-6	0.864005
1.300000E-6	0.887366
1.325000E-6	0.832344
1.350000E-6	0.890133
1.375000E-6	0.907654
1.400000E-6	0.894129
1.425000E-6	0.842180
1.450000E-6	0.915031
1.475000E-6	0.850480
1.500000E-6	0.899047
1.525000E-6	0.898740
1.550000E-6	0.871689
1.575000E-6	0.876915
1.600000E-6	0.895666
1.650000E-6	0.852785
1.700000E-6	0.886598
1.750000E-6	0.861853
1.800000E-6	0.869691
1.850000E-6	0.845561
1.900000E-6	0.871997
1.950000E-6	0.900584
2.000000E-6	0.875839
2.050000E-6	0.882755
2.100000E-6	0.899662
2.150000E-6	0.857549
2.200000E-6	0.880757
2.250000E-6	0.852170
2.300000E-6	0.853861
2.350000E-6	0.894590
2.400000E-6	0.890133
2.450000E-6	0.873841
2.500000E-6	0.879835
2.550000E-6	0.865542
2.600000E-6	0.837569
2.650000E-6	0.892745
2.700000E-6	0.862775
2.750000E-6	0.879528
2.800000E-6	0.869999
2.850000E-6	0.873073
2.900000E-6	0.882909
2.950000E-6	0.875839
3.000000E-6	0.866771
3.050000E-6	0.872150
3.100000E-6	0.871536
3.150000E-6	0.888135
3.200000E-6	0.881987
3.300000E-6	0.864081
3.400000E-6	0.865004
3.500000E-6	0.874840
3.600000E-6	0.880450
3.700000E-6	0.874763
3.800000E-6	0.874533
3.900000E-6	0.861930
4.000000E-6	0.879835
4.100000E-6	0.861315
4.200000E-6	0.857088
4.300000E-6	0.874763
4.400000E-6	0.880680
4.500000E-6	0.892515
4.600000E-6	0.873303
4.700000E-6	0.859701
4.800000E-6	0.861469
4.900000E-6	0.870767
5.000000E-6	0.862545
5.100000E-6	0.851017
5.200000E-6	0.869691
5.300000E-6	0.854783
5.400000E-6	0.894974
5.500000E-6	0.848405
5.600000E-6	0.850633
5.700000E-6	0.872688
5.800000E-6	0.871151
5.900000E-6	0.861622
6.000000E-6	0.874148
6.100000E-6	0.884139
6.200000E-6	0.851094
6.300000E-6	0.855475
6.400000E-6	0.862160
6.600000E-6	0.879182
6.800000E-6	0.855321
7.000000E-6	0.875647
7.200000E-6	0.857127
7.400000E-6	0.871574
7.600000E-6	0.849634
7.800000E-6	0.861200
8.000000E-6	0.868654
8.200000E-6	0.860854
8.400000E-6	0.879643
8.600000E-6	0.869461
8.800000E-6	0.856512
9.000000E-6	0.855244
9.200000E-6	0.881564
9.400000E-6	0.869307
9.600000E-6	0.876838
9.800000E-6	0.852170
1.000000E-5	0.879720
1.020000E-5	0.857818
1.040000E-5	0.872688
1.060000E-5	0.849711
1.080000E-5	0.876569
1.100000E-5	0.851479
1.120000E-5	0.860815
1.140000E-5	0.857665
1.160000E-5	0.860354
1.180000E-5	0.849250
1.200000E-5	0.865157
1.220000E-5	0.857242
1.240000E-5	0.856358
1.260000E-5	0.867847
1.280000E-5	0.870037
1.320000E-5	0.858510
1.360000E-5	0.861987
1.400000E-5	0.851267
1.440000E-5	0.852228
1.480000E-5	0.855494
1.520000E-5	0.857511
1.560000E-5	0.850172
1.600000E-5	0.854648
1.640000E-5	0.855417
1.680000E-5	0.862199
1.720000E-5	0.843832
1.760000E-5	0.854476
1.800000E-5	0.850057
1.840000E-5	0.849999
1.880000E-5	0.846157
1.920000E-5	0.842026
1.960000E-5	0.856224
2.000000E-5	0.841085
2.040000E-5	0.841219
2.080000E-5	0.854706
2.120000E-5	0.841488
2.160000E-5	0.837915
2.200000E-5	0.839702
2.240000E-5	0.835725
2.280000E-5	0.846253
2.320000E-5	0.842257
2.360000E-5	0.835014
2.400000E-5	0.838972
2.440000E-5	0.850633
2.480000E-5	0.837761
2.520000E-5	0.836013
2.560000E-5	0.837089
2.640000E-5	0.836580
2.720000E-5	0.834495
2.800000E-5	0.836685
2.880000E-5	0.832036
2.960000E-5	0.833198
3.040000E-5	0.829318
3.120000E-5	0.829856
3.200000E-5	0.828040
3.280000E-5	0.828713
3.360000E-5	0.823525
3.440000E-5	0.825879
3.520000E-5	0.823026
3.600000E-5	0.831306
3.680000E-5	0.828242
3.760000E-5	0.821912
3.840000E-5	0.815716
3.920000E-5	0.813410
4.000000E-5	0.812786
4.080000E-5	0.815716
4.160000E-5	0.818780
4.240000E-5	0.814505
4.320000E-5	0.808886
4.400000E-5	0.811883
4.480000E-5	0.812536
4.560000E-5	0.804169
4.640000E-5	0.802796
4.720000E-5	0.799616
4.800000E-5	0.810663
4.880000E-5	0.808156
4.960000E-5	0.800615
5.040000E-5	0.800029
5.120000E-5	0.798099
5.280000E-5	0.801185
5.440000E-5	0.796545
5.600000E-5	0.787336
5.760000E-5	0.791621
5.920000E-5	0.790277
6.080000E-5	0.779047
6.240000E-5	0.782904
6.400000E-5	0.783797
6.560000E-5	0.774406
6.720000E-5	0.780694
6.880000E-5	0.775559
7.040000E-5	0.772273
7.200000E-5	0.765121
7.360000E-5	0.762633
7.520000E-5	0.768507
7.680000E-5	0.766726
7.840000E-5	0.766354
8.000000E-5	0.764515
8.160000E-5	0.759927
8.320000E-5	0.756190
8.480000E-5	0.747400
8.640000E-5	0.753376
8.800000E-5	0.748789
8.960000E-5	0.748151
9.120000E-5	0.742564
9.280000E-5	0.738477
9.440000E-5	0.739654
9.600000E-5	0.730584
9.760000E-5	0.737118
9.920000E-5	0.729721
0.000101	0.735086
0.000102	0.729698
0.000106	0.721337
0.000109	0.719676
0.000112	0.712228
0.000115	0.708943
0.000118	0.707982
0.000122	0.701354
0.000125	0.696831
0.000128	0.695437
0.000131	0.691837
0.000134	0.684663
0.000138	0.679803
0.000141	0.676023
0.000144	0.669786
0.000147	0.667820
0.000150	0.666930
0.000154	0.661000
0.000157	0.654070
0.000160	0.655618
0.000163	0.651278
0.000166	0.649057
0.000170	0.639267
0.000173	0.636920
0.000176	0.631011
0.000179	0.628964
0.000182	0.627248
0.000186	0.618991
0.000189	0.619917
0.000192	0.615996
0.000195	0.607692
0.000198	0.606603
0.000202	0.605899
0.000205	0.597853
0.000211	0.590274
0.000218	0.584721
0.000224	0.577791
0.000230	0.571627
0.000237	0.562976
0.000243	0.556644
0.000250	0.550741
0.000256	0.543418
0.000262	0.535933
0.000269	0.532719
0.000275	0.522735
0.000282	0.517855
0.000288	0.510558
0.000294	0.504088
0.000301	0.496147
0.000307	0.492726
0.000314	0.486727
0.000320	0.479493
0.000326	0.474952
0.000333	0.470707
0.000339	0.463950
0.000346	0.456052
0.000352	0.452009
0.000358	0.444811
0.000365	0.441494
0.000371	0.434335
0.000378	0.429778
0.000384	0.425127
0.000390	0.418068
0.000397	0.414797
0.000403	0.409612
0.000410	0.406060
0.000422	0.395438
0.000435	0.385264
0.000448	0.376806
0.000461	0.367030
0.000474	0.358395
0.000486	0.349037
0.000499	0.341988
0.000512	0.333023
0.000525	0.325949
0.000538	0.317437
0.000550	0.310932
0.000563	0.305982
0.000576	0.298065
0.000589	0.289892
0.000602	0.283294
0.000614	0.278964
0.000627	0.271982
0.000640	0.265935
0.000653	0.259449
0.000666	0.255854
0.000678	0.249953
0.000691	0.243486
0.000704	0.238560
0.000717	0.232816
0.000730	0.227953
0.000742	0.223657
0.000755	0.218622
0.000768	0.212587
0.000781	0.207703
0.000794	0.204511
0.000806	0.197685
0.000819	0.194216
0.000845	0.185896
0.000870	0.178320
0.000896	0.170097
0.000922	0.163524
0.000947	0.156988
0.000973	0.148506
0.000998	0.143749
0.001024	0.136271
0.001050	0.131285
0.001075	0.125387
0.001101	0.119695
0.001126	0.115019
0.001152	0.108896
0.001178	0.105110
0.001203	0.101497
0.001229	0.096286
0.001254	0.092811
0.001280	0.088161
0.001306	0.085799
0.001331	0.082469
0.001357	0.079967
0.001382	0.077039
0.001408	0.074420
0.001434	0.070505
0.001459	0.069287
0.001485	0.066072
0.001510	0.063566
0.001536	0.061412
0.001562	0.059600
0.001587	0.056896
0.001613	0.054440
0.001638	0.051480
0.001690	0.047476
0.001741	0.044581
0.001792	0.041167
0.001843	0.039270
0.001894	0.035640
0.001946	0.032998
0.001997	0.031553
0.002048	0.029666
0.002099	0.027156
0.002150	0.027131
0.002202	0.024803
0.002253	0.023262
0.002304	0.021952
0.002355	0.022475
0.002406	0.021999
0.002458	0.022492
0.002509	0.021444
0.002560	0.021726
0.002611	0.021234
0.002662	0.020778
0.002714	0.020869
0.002765	0.018825
0.002816	0.016980
0.002867	0.015794
0.002918	0.014880
0.002970	0.012992
0.003021	0.012587
0.003072	0.012093
0.003123	0.010921
0.003174	0.009317
0.003226	0.008975
0.003277	0.008004
0.003379	0.006031
0.003482	0.004024
0.003584	0.001307
0.003686	0.001382
0.003789	0.000324
0.003891	0.001810
0.003994	0.002291
0.004096	0.004269
0.004198	0.004990
0.004301	0.004632
0.004403	0.004524
0.004506	0.004226
0.004608	0.004908
0.004710	0.006232
0.004813	0.007557
0.004915	0.005670
0.005018	0.003714
0.005120	0.002432
0.005222	0.001797
0.005325	0.001950
0.005427	0.000738
0.005530	-0.000244
0.005632	-0.001059
0.005734	-0.000321
0.005837	0.001551
0.005939	0.000965
0.006042	0.000708
0.006144	-0.001385
0.006246	-0.001919
0.006349	-0.001951
0.006451	-0.001854
0.006554	-0.001213
0.006758	-0.000815
0.006963	-0.000845
0.007168	-0.001107
0.007373	-0.000802
0.007578	-0.000683
0.007782	-0.001110
0.007987	-0.000162
0.008192	-0.000331
0.008397	-0.000930
0.008602	-0.001453
0.008806	-0.002193
0.009011	-0.000340
0.009216	0.002214
0.009421	0.005228
0.009626	0.008957
0.009830	0.009262
0.010035	0.008430
0.010240	0.005177
0.010445	0.004500
0.010650	0.001967
0.010854	0.001443
0.011059	-0.000235
0.011264	-0.001147
0.011469	-0.001019
0.011674	0.000140
0.011878	0.000646
0.012083	0.002444
0.012288	0.005684
0.012493	0.007392
0.012698	0.007369
0.012902	0.006243
0.013107	0.005935
0.013517	0.000780
0.013926	-0.000439
0.014336	-0.001392
0.014746	-0.001294
0.015155	-0.002828
0.015565	-0.003168
0.015974	-0.002026
0.016384	-0.000804
0.016794	-0.000219
0.017203	-0.003334
0.017613	-0.003495
0.018022	-0.001129
0.018432	-0.001613
0.018842	-0.000204
0.019251	0.003164
0.019661	0.000682
0.020070	-0.001713
0.020480	-0.000875
0.020890	0.000510
0.021299	-0.000842
0.021709	-0.001966
0.022118	0.000846
0.022528	0.001861
0.022938	0.000322
0.023347	-0.000991
0.023757	-0.003601
0.024166	-0.005187
0.024576	-0.001076
0.024986	0.001665
0.025395	0.003305
0.025805	0.003246
0.026214	0.004359
0.027034	0.006112
0.027853	0.006051
0.028672	0.004480
0.029491	0.005122
0.030310	0.000885
0.031130	0.003363
0.031949	0.002223
0.032768	-0.002617
0.033587	-0.003685
0.034406	-0.000877
0.035226	0.000197
0.036045	-0.000386
0.036864	0.002755
0.037683	-0.002740
0.038502	0.002206
0.039322	0.010916
0.040141	0.013629
0.040960	0.002552
0.041779	-0.004805
0.042598	-0.000735
0.043418	0.001434
0.044237	0.003258
0.045056	0.004773
0.045875	0.005196
0.046694	-0.000334
0.047514	-0.003532
0.048333	-0.004222
0.049152	-0.004602
0.049971	0.004207
0.050790	0.000223
0.051610	-0.002538
0.052429	-0.006364
0.054067	-0.005504
0.055706	-0.000976
0.057344	0.003836
0.058982	0.001339
0.060621	-0.002686
0.062259	-0.001011
0.063898	-0.002995
0.065536	0.003966
0.067174	0.000365
0.068813	-0.000399
0.070451	0.005208
0.072090	0.000326
0.073728	-0.003916
0.075366	-0.004015
0.077005	0.004706
0.078643	0.002269
0.080282	0.004560
0.081920	0.008787
0.083558	0.002589
0.085197	0.000771
0.086835	0.002268
0.088474	-0.000590
0.090112	0.000485
0.091750	0.006673
0.093389	0.002033
0.095027	0.002314
0.096666	0.002550
0.098304	-0.002955
0.099942	-0.003691
0.101581	0.002077
0.103219	0.004435
0.104858	-0.001820
0.108134	0.008738
0.111411	-0.001639
0.114688	-0.001328
0.117965	-0.003200
0.121242	-0.001354
0.124518	-0.007694
0.127795	-0.003368
0.131072	-0.001067
0.134349	0.007951
0.137626	0.001240
0.140902	0.001128
0.144179	0.007032
0.147456	-0.000501
0.150733	0.006038
0.154010	-0.000210
0.157286	-0.000560
0.160563	-0.001589
0.163840	0.000391
0.167117	0.000100
0.170394	-0.003473
0.173670	-0.003326
0.176947	0.004639
0.180224	0.002841
0.183501	0.001490
0.186778	0.002248
0.190054	0.007693
0.193331	0.001691
0.196608	-0.001056
0.199885	0.002277
0.203162	-0.005906
0.206438	-0.005640
0.209715	0.000662
0.216269	-0.001673
0.222822	0.000236
0.229376	-0.001004
0.235930	-0.002300
0.242483	0.002593
0.249037	0.000156
0.255590	0.006409
0.262144	9.883675E-6
0.268698	-0.000208
0.275251	0.003875
0.281805	0.000152
0.288358	-0.000339
0.294912	0.000105
0.301466	0.000501
0.308019	-0.001781
0.314573	-0.004853
0.321126	-0.002222
0.327680	-0.006514
0.334234	-0.002598
0.340787	0.000241
0.347341	-0.000114
0.353894	-0.004108
0.360448	-0.000571
0.367002	0.001107
0.373555	0.001390
0.380109	0.002611
0.386662	0.002773
0.393216	0.004622
0.399770	0.001234
0.406323	-0.000933
0.412877	0.000515
0.419430	0.001203
0.432538	-0.001548
0.445645	-0.001655
0.458752	0.002605
0.471859	0.000952
0.484966	0.001665
0.498074	0.002230
0.511181	0.002514
0.524288	0.000508
0.537395	0.000942
0.550502	-0.002045
0.563610	0.001581
0.576717	-0.001798
0.589824	-6.886189E-5
0.602931	0.001936
0.616038	-0.000802
0.629146	-0.002568
0.642253	-0.001578
0.655360	-0.000167
0.668467	0.001639
0.681574	-0.001404
0.694682	0.002122
0.707789	-0.002520
0.720896	-0.002289
0.734003	-0.000186
0.747110	0.001143
0.760218	0.000107
0.773325	9.190969E-5
0.786432	0.002638
0.799539	-0.001357
0.812646	-0.001971
0.825754	-0.000796
0.838861	-0.001305
0.865075	0.000386
0.891290	-0.000466
0.917504	-0.000696
0.943718	0.000552
0.969933	-0.000224
0.996147	0.001129
1.022362	0.001958
1.048576	0.001274
1.074790	0.000965
1.101005	-0.001607
1.127219	-0.000710
1.153434	0.000640
1.179648	0.004437
1.205862	-0.003104
1.232077	0.000845
1.258291	0.004079
1.284506	0.001467
1.310720	-0.000910
1.336934	-0.001828
1.363149	-0.002428
1.389363	-0.002580
1.415578	-0.001699
1.441792	0.000242
1.468006	-0.001969
1.494221	-0.001729
1.520435	0.000689
1.546650	0.000625
1.572864	-0.002474
1.599078	-0.001286
1.625293	-0.002288
1.651507	-0.001931
1.677722	0.001280
1.730150	0.000527
1.782579	-0.000247
1.835008	-0.001349
1.887437	-0.002569
1.939866	-0.002734
1.992294	-0.000141
2.044723	0.000449
2.097152	0.001206
2.149581	-0.001479
2.202010	-0.002324
2.254438	0.001256
2.306867	0.000431
2.359296	-9.770284E-5
2.411725	-0.000510
2.464154	-0.001221
2.516582	0.002589
2.569011	-0.001472
2.621440	-0.000623
2.673869	-0.000792
2.726298	-0.001242
2.778726	0.000420
2.831155	-0.000967
2.883584	0.000374
2.936013	-0.000381
2.988442	0.001569
3.040870	0.000422
3.093299	0.000230
3.145728	0.001241
3.198157	-0.000224
3.250586	-0.000283
3.303015	0.000253
3.355443	-0.000713
3.460301	0.000990
3.565158	0.000934
3.670016	-0.000779
3.774873	0.000872
3.879731	-0.000692
3.984589	0.001318
4.089447	0.001668
4.194304	0.001825
4.299161	0.000946
4.404019	-0.000455
4.508877	-0.000111
4.613734	0.000519
4.718592	0.000170
4.823450	0.000430
4.928307	-0.001674
5.033165	-0.000102
5.138022	0.001289
5.242880	0.000666
5.347738	-0.000688
5.452595	-0.001155
5.557453	4.740595E-5
5.662311	-0.001458
5.767168	-0.000564
5.872025	-5.975642E-5
5.976883	-0.000949
6.081741	-0.000272
6.186598	-0.001663
6.291456	0.001497
6.396314	0.001071
6.501171	-0.000319
6.606029	0.000444
6.710886	-0.001262
6.920601	-0.001008
7.130317	1.134907E-5
7.340032	0.000153
7.549747	0.001478
7.759462	0.000162
7.969178	5.330377E-5
8.178893	-6.177157E-5
8.388608	0.000122
8.598323	0.000600
8.808039	0.000187
9.017754	0.001258
9.227468	-0.001130
9.437184	0.000199
9.646899	-0.000801
9.856614	-0.000425
10.066330	0.000189
10.276045	0.000254
10.485760	0.000186
10.695476	0.001962
10.905190	-0.001034
11.114905	0.001008
11.324621	-0.000706
11.534336	0.001643
11.744051	0.000929
11.953767	-0.000412
12.163482	-0.000707
12.373197	-5.186143E-6
12.582912	-0.000290
12.792627	0.000941
13.002342	-0.001591
13.212058	6.141359E-5
13.421773	-0.001295
13.841203	0.000744
14.260633	-9.723804E-5
14.680064	0.001792
15.099494	0.001226
15.518925	-0.000362
15.938355	-0.000527
16.357786	-0.001544
16.777216	-0.001475
17.196646	0.000301
17.616077	0.001905
18.035507	0.002105
18.454937	0.000398
18.874369	1.349032E-5
19.293798	0.000000
19.713228	NaN
20.132660	NaN
20.552090	NaN
20.971519	NaN
21.390951	NaN
21.810381	NaN
22.229811	NaN
22.649242	NaN
23.068672	NaN
23.488102	NaN
23.907534	NaN
24.326963	NaN
24.746393	NaN
25.165825	NaN
25.585255	NaN
26.004684	NaN
26.424116	NaN
26.843546	NaN
27.682405	NaN
28.521267	NaN
29.360128	NaN
30.198988	NaN
31.037849	NaN
31.876711	NaN
32.715572	NaN
33.554432	NaN
34.393291	NaN
35.232155	NaN
36.071014	NaN
36.909874	NaN
37.748737	NaN
38.587597	NaN
39.426456	NaN
40.265320	NaN
41.104179	NaN
41.943039	NaN
42.781902	NaN
43.620762	NaN
44.459621	NaN
45.298485	NaN
46.137344	NaN
46.976204	NaN
47.815067	NaN
48.653927	NaN
49.492786	NaN
50.331650	NaN
51.170509	NaN
52.009369	NaN
52.848232	NaN
53.687092	NaN
55.364811	NaN
57.042534	NaN
58.720257	NaN
60.397976	NaN
62.075699	NaN
63.753422	NaN
65.431145	NaN
67.108864	NaN
68.786583	NaN
70.464310	NaN
72.142029	NaN
73.819748	NaN
75.497475	NaN
77.175194	NaN
78.852913	NaN
80.530640	NaN
82.208359	NaN
83.886078	NaN
85.563805	NaN
87.241524	NaN
88.919243	NaN
90.596970	NaN
92.274689	NaN
93.952408	NaN
95.630135	NaN
97.307854	NaN
98.985573	NaN
100.663300	NaN
102.341019	NaN
104.018738	NaN
105.696465	NaN
107.374184	NaN
110.729622	NaN
114.085068	NaN
117.440514	NaN
120.795952	NaN
124.151398	NaN
127.506844	NaN
130.862289	NaN
134.217728	NaN
137.573166	NaN
140.928619	NaN
144.284058	NaN
147.639496	NaN
150.994949	NaN
154.350388	NaN
157.705826	NaN
161.061279	NaN
164.416718	NaN
167.772156	NaN
171.127609	NaN
174.483047	NaN
177.838486	NaN
181.193939	NaN
184.549377	NaN
187.904816	NaN
191.260269	NaN
194.615707	NaN
197.971146	NaN
201.326599	NaN
204.682037	NaN
208.037476	NaN
211.392929	NaN
214.748367	NaN
221.459244	NaN
228.170135	NaN
234.881027	NaN
241.591904	NaN
248.302795	NaN
255.013687	NaN
261.724579	NaN
268.435455	NaN
275.146332	NaN
281.857239	NaN
288.568115	NaN
295.278992	NaN
301.989899	NaN
308.700775	NaN
315.411652	NaN
322.122559	NaN
328.833435	NaN
335.544312	NaN
342.255219	NaN
348.966095	NaN
355.676971	NaN
362.387878	NaN
369.098755	NaN
375.809631	NaN
382.520538	NaN
389.231415	NaN
395.942291	NaN
402.653198	NaN
409.364075	NaN
416.074951	NaN
422.785858	NaN
429.496735	NaN
442.918488	NaN
456.340271	NaN
469.762054	NaN
483.183807	NaN
496.605591	NaN
510.027374	NaN
523.449158	NaN
536.870911	NaN
550.292664	NaN
563.714478	NaN
577.136230	NaN
590.557983	NaN
603.979797	NaN
617.401550	NaN
630.823303	NaN
644.245117	NaN
657.666870	NaN
671.088623	NaN
684.510437	NaN
697.932190	NaN
711.353943	NaN
724.775757	NaN
738.197510	NaN
751.619263	NaN
765.041077	NaN
778.462830	NaN
791.884583	NaN
805.306396	NaN
818.728149	NaN
832.149902	NaN
845.571716	NaN
858.993469	NaN
885.836975	NaN
912.680542	NaN
939.524109	NaN
966.367615	NaN
993.211182	NaN
1020.054749	NaN
1046.898315	NaN
1073.741821	NaN
1100.585327	NaN
1127.428955	NaN
1154.272461	NaN
1181.115967	NaN
1207.959595	NaN
1234.803101	NaN
1261.646606	NaN
1288.490234	NaN
1315.333740	NaN
1342.177246	NaN
1369.020874	NaN
1395.864380	NaN
1422.707886	NaN
1449.551514	NaN
1476.395020	NaN
1503.238525	NaN
1530.082153	NaN
1556.925659	NaN
1583.769165	NaN
1610.612793	NaN
1637.456299	NaN
1664.299805	NaN
1691.143433	NaN
1717.986938	NaN
1771.673950	NaN
1825.361084	NaN
1879.048218	NaN
1932.735229	NaN
1986.422363	NaN
2040.109497	NaN
2093.796631	NaN
2147.483643	NaN
2201.170654	NaN
2254.857910	NaN
2308.544922	NaN
2362.231934	NaN
2415.919189	NaN
2469.606201	NaN
2523.293213	NaN
2576.980469	NaN
2630.667480	NaN
2684.354492	NaN
2738.041748	NaN
2791.728760	NaN
2845.415771	NaN
2899.103027	NaN
2952.790039	NaN
3006.477051	NaN
3060.164307	NaN
3113.851318	NaN
3167.538330	NaN
3221.225586	NaN
3274.912598	NaN
3328.599609	NaN
3382.286865	NaN
3435.973877	NaN
0.000000	NaN
0.000000	NaN
0.000000	NaN
0.000000	NaN
0.000000	NaN
0.000000	NaN
0.000000	NaN
0.000000	NaN
0.000000	NaN
0.000000	NaN
0.000000	NaN
0.000000	NaN
0.000000	NaN
0.000000	NaN
0.000000	NaN
0.000000	NaN
0.000000	NaN
0.000000	NaN
0.000000	NaN
0.000000	NaN
0.000000	NaN
0.000000	NaN
0.000000	NaN
0.000000	NaN
0.000000	NaN
0.000000	NaN
0.000000	NaN
0.000000	NaN
0.000000	NaN
0.000000	NaN
0.000000	NaN
0.000000	NaN

Count Rate History (KHz)  CR CHA / CR CHB
0.000000	69.818497	71.220398
0.104858	89.673996	91.609955
0.209715	74.262619	76.866150
0.314573	63.495636	64.868927
0.419430	77.571869	81.377029
0.524288	82.807541	85.153580
0.629146	65.298080	66.604614
0.734003	73.919296	74.796677
0.838861	75.321198	72.603226
0.943718	86.641312	92.496872
1.048576	74.338913	72.278976
1.153434	77.114105	78.458786
1.258291	89.225769	90.198517
1.363149	87.509155	91.352463
1.468006	86.698532	91.218948
1.572864	76.341629	74.901581
1.677722	95.491409	99.487305
1.782579	85.916519	88.405609
1.887437	79.917908	77.877045
1.992294	81.148148	83.227158
2.097152	81.415176	84.009171
2.202010	81.911087	80.528259
2.306867	78.773499	78.563690
2.411725	60.672760	62.360764
2.516582	79.364777	80.499649
2.621440	75.340271	76.236725
2.726298	84.419250	83.417892
2.831155	69.417953	71.811676
2.936013	82.216263	82.654953
3.040870	78.229904	81.233978
3.145728	67.873001	68.473816
3.250586	80.375671	80.137253
3.355443	69.847107	70.600510
3.460301	63.066483	63.943863
3.565158	77.867508	77.753067
3.670016	73.032379	74.281693
3.774874	87.375641	89.759827
3.879731	77.829361	76.751709
3.984589	77.333450	78.659058
4.089446	72.736740	74.014664
4.194304	60.367584	62.627792
4.299162	90.465546	94.261169
4.404019	69.522858	69.313049
4.508877	66.490173	65.326691
4.613734	78.811646	81.157684
4.718592	85.306168	87.270737
4.823450	84.953308	85.248947
4.928307	83.913803	86.784363
5.033165	75.092316	80.308914
5.138022	86.212158	87.165833
5.242880	92.449188	94.995499
5.347738	78.582764	80.165863
5.452595	82.178116	86.917877
5.557453	83.236694	82.597733
5.662310	75.111389	75.407028
5.767168	98.409653	103.769302
5.872026	80.690384	79.393387
5.976883	89.035034	91.619492
6.081741	88.567734	98.447800
6.186598	88.748932	85.268021
6.291456	81.663132	86.708069
6.396314	94.757080	94.919205
6.501171	73.699951	81.214905
6.606029	71.611404	65.641403
6.710886	69.427490	69.303513
6.815744	86.221695	89.082718
6.920602	80.194473	79.765320
7.025459	82.120895	85.563660
7.130317	81.062317	84.743500
7.235174	80.795288	85.601807
7.340032	77.972412	81.634521
7.444890	78.516006	77.381134
7.549747	70.858002	71.258545
7.654605	70.066452	68.864822
7.759462	68.168640	66.623688
7.864320	99.334717	106.067657
7.969178	68.559647	70.533752
8.074035	101.022720	104.284286
8.178893	65.498352	65.460205
8.283750	76.198578	76.684952
8.388608	78.430176	79.936981
8.493466	77.190399	79.889297
8.598323	65.011978	66.967010
8.703181	75.874329	75.292587
8.808038	86.927414	89.273453
8.912896	85.687637	91.276169
9.017754	89.759827	91.180801
9.122611	84.552765	86.088181
9.227469	75.168610	77.800751
9.332326	81.396103	82.178116
9.437184	77.304840	77.667236
9.542042	78.401566	80.413818
9.646899	81.348419	82.902908
9.751757	80.547333	80.852509
9.856614	84.438324	86.975098
9.961472	80.547333	81.195831
10.066330	71.573257	74.520111
10.171187	94.223022	96.797943
10.276045	77.724457	83.389282
10.380902	102.643967	101.737976
10.485760	78.763962	82.283020
10.590618	75.626373	73.966980
10.695475	79.441071	79.145432
10.800333	85.401535	85.887909
10.905190	78.048706	79.936981
11.010048	76.103210	79.030991
11.114906	79.946518	78.201294
11.219763	78.392029	78.163147
11.324621	80.471039	82.406998
11.429478	74.987411	73.146820
11.534336	87.537766	90.036392
11.639194	80.862045	83.103180
11.744051	70.829391	72.565079
11.848909	77.724457	79.174042
11.953766	74.386597	74.768066
12.058624	89.797974	89.569092
12.163482	77.495575	77.810287
12.268339	76.141357	79.450607
12.373197	81.319809	77.877045
12.478054	73.852539	73.699951
12.582912	72.717667	74.367523
12.687770	83.007812	89.035034
12.792627	88.319778	84.323883
12.897485	85.802078	89.464188
13.002342	70.104599	71.783066
13.107200	76.894760	75.521469
13.212058	78.554153	80.070496
13.316915	95.882416	99.067688
13.421773	73.690414	76.341629
13.526630	75.139999	76.732635
13.631488	90.589523	93.793869
13.736346	74.443817	76.856613
13.841203	81.195831	86.202621
13.946061	87.690353	85.926056
14.050918	74.415207	77.314377
14.155776	80.652237	82.120895
14.260634	74.415207	74.520111
14.365491	90.055466	92.449188
14.470349	95.863342	97.379684
14.575206	75.893402	78.144073
14.680064	73.661804	77.476501
14.784922	73.471069	73.614120
14.889779	77.037811	76.332092
14.994637	73.890686	76.789856
15.099494	83.580017	83.408356
15.204352	78.983307	83.103180
15.309210	75.893402	77.266693
15.414067	80.051422	79.736710
15.518925	83.475113	86.717606
15.623782	80.480576	83.179474
15.728640	78.277588	77.133179
15.833498	78.268051	81.100464
15.938355	75.950623	76.751709
16.043213	74.491501	78.859329
16.148070	77.066422	75.922012
16.252928	90.160370	91.686249
16.357786	80.280304	85.039139
16.462643	97.360611	99.430084
16.567501	92.239380	92.210770
16.672358	91.018677	95.939636
16.777216	87.633133	89.769363
16.882074	86.030960	86.727142
16.986931	82.550049	84.114075
17.091789	74.453354	75.798035
17.196646	72.088242	70.552826
17.301504	81.357956	84.457397
17.406362	78.592300	79.727173
17.511219	85.191727	87.280273
17.616077	73.833466	74.548721
17.720934	70.953369	70.657730
17.825792	87.871552	95.634460
17.930650	98.333359	100.288391
18.035507	88.872910	89.159012
18.140365	69.179535	69.322586
18.245222	66.843033	67.672729
18.350080	74.882507	78.372955
18.454938	89.626312	85.220337
18.559795	84.867477	89.292526
18.664653	71.563721	73.776245
18.769510	77.219009	77.419281
18.874368	78.144073	79.755783
18.979226	81.272125	85.954666
19.084083	86.374283	89.254379
19.188941	94.766617	91.028214
19.293798	82.654953	85.201263
19.398656	73.261261	76.494217
19.503514	81.529617	82.187653
19.608371	103.349686	104.036331
19.713229	73.595047	75.874329
19.818086	80.289841	81.424713
