1/9/2026	11:05 AM
Pseudo Cross Correlation
Scattering angle:	90.0
Duration (s):	20
Wavelength (nm):	632.8
Refractive index:	1.330
Viscosity (mPas):	0.773
Temperature (K):	304.6
Laser intensity (mW):	8.547775
Average Count rate  A (kHz):	95.3
Average Count rate  B (kHz):	97.3
Intercept:	0.9027
Cumulant 1st	100.76
Cumulant 2nd	98.65	15.57
Cumulant 3rd	97.92	21.33

Lag time (s)         g2-1
1.250000E-8	0.878056
2.500000E-8	0.892868
3.750000E-8	0.957343
5.000000E-8	0.921620
6.250000E-8	0.905066
7.500000E-8	0.857580
8.750000E-8	0.891125
1.000000E-7	0.895046
1.125000E-7	0.866729
1.250000E-7	0.950808
1.375000E-7	0.912471
1.500000E-7	0.914650
1.625000E-7	0.865858
1.750000E-7	0.870214
1.875000E-7	0.924669
2.000000E-7	0.912036
2.125000E-7	0.956471
2.250000E-7	0.906372
2.375000E-7	0.940353
2.500000E-7	0.927719
2.625000E-7	0.949501
2.750000E-7	0.881541
2.875000E-7	0.911165
3.000000E-7	0.914214
3.125000E-7	0.881976
3.250000E-7	0.905066
3.375000E-7	0.918135
3.500000E-7	0.884155
3.625000E-7	0.885462
3.750000E-7	0.935996
3.875000E-7	0.877184
4.000000E-7	0.902452
4.125000E-7	0.919006
4.250000E-7	0.912036
4.375000E-7	0.906808
4.500000E-7	0.908115
4.625000E-7	0.912471
4.750000E-7	0.910293
4.875000E-7	0.939481
5.000000E-7	0.887204
5.125000E-7	0.942531
5.250000E-7	0.863244
5.375000E-7	0.875006
5.500000E-7	0.879798
5.625000E-7	0.907244
5.750000E-7	0.884155
5.875000E-7	0.864986
6.000000E-7	0.902016
6.125000E-7	0.857580
6.250000E-7	0.893303
6.375000E-7	0.908551
6.500000E-7	0.932075
6.625000E-7	0.953422
6.750000E-7	0.889818
6.875000E-7	0.879798
7.000000E-7	0.891125
7.125000E-7	0.919006
7.250000E-7	0.893303
7.375000E-7	0.907679
7.500000E-7	0.954729
7.625000E-7	0.990452
7.750000E-7	0.920313
7.875000E-7	0.892868
8.000000E-7	0.935125
8.250000E-7	0.910511
8.500000E-7	0.907679
8.750000E-7	0.885026
9.000000E-7	0.877184
9.250000E-7	0.894828
9.500000E-7	0.880016
9.750000E-7	0.906155
1.000000E-6	0.938392
1.025000E-6	0.912036
1.050000E-6	0.899184
1.075000E-6	0.951026
1.100000E-6	0.901363
1.125000E-6	0.875224
1.150000E-6	0.889165
1.175000E-6	0.899838
1.200000E-6	0.883066
1.225000E-6	0.892868
1.250000E-6	0.902669
1.275000E-6	0.913561
1.300000E-6	0.883937
1.325000E-6	0.885462
1.350000E-6	0.902452
1.375000E-6	0.905719
1.400000E-6	0.913125
1.425000E-6	0.880016
1.450000E-6	0.908333
1.475000E-6	0.905937
1.500000E-6	0.914868
1.525000E-6	0.866947
1.550000E-6	0.911165
1.575000E-6	0.882194
1.600000E-6	0.913343
1.650000E-6	0.890907
1.700000E-6	0.898095
1.750000E-6	0.922164
1.800000E-6	0.919877
1.850000E-6	0.900491
1.900000E-6	0.894174
1.950000E-6	0.905610
2.000000E-6	0.882739
2.050000E-6	0.930006
2.100000E-6	0.909422
2.150000E-6	0.913343
2.200000E-6	0.907353
2.250000E-6	0.895590
2.300000E-6	0.897333
2.350000E-6	0.888293
2.400000E-6	0.914868
2.450000E-6	0.878600
2.500000E-6	0.900165
2.550000E-6	0.907244
2.600000E-6	0.900056
2.650000E-6	0.893630
2.700000E-6	0.907897
2.750000E-6	0.896135
2.800000E-6	0.912036
2.850000E-6	0.902669
2.900000E-6	0.919224
2.950000E-6	0.875986
3.000000E-6	0.886769
3.050000E-6	0.891887
3.100000E-6	0.893412
3.150000E-6	0.909967
3.200000E-6	0.903214
3.300000E-6	0.884481
3.400000E-6	0.896407
3.500000E-6	0.879145
3.600000E-6	0.918189
3.700000E-6	0.884863
3.800000E-6	0.887368
3.900000E-6	0.891561
4.000000E-6	0.896080
4.100000E-6	0.900764
4.200000E-6	0.899402
4.300000E-6	0.892868
4.400000E-6	0.894828
4.500000E-6	0.907625
4.600000E-6	0.894610
4.700000E-6	0.880561
4.800000E-6	0.910729
4.900000E-6	0.897660
5.000000E-6	0.906318
5.100000E-6	0.899947
5.200000E-6	0.896734
5.300000E-6	0.902397
5.400000E-6	0.888838
5.500000E-6	0.879580
5.600000E-6	0.865476
5.700000E-6	0.889655
5.800000E-6	0.881214
5.900000E-6	0.894120
6.000000E-6	0.885135
6.100000E-6	0.863625
6.200000E-6	0.894338
6.300000E-6	0.881214
6.400000E-6	0.883882
6.600000E-6	0.886251
6.800000E-6	0.879635
7.000000E-6	0.883882
7.200000E-6	0.899947
7.400000E-6	0.887803
7.600000E-6	0.890499
7.800000E-6	0.884291
8.000000E-6	0.876722
8.200000E-6	0.889900
8.400000E-6	0.880234
8.600000E-6	0.879771
8.800000E-6	0.888811
9.000000E-6	0.884264
9.200000E-6	0.897469
9.400000E-6	0.881486
9.600000E-6	0.886170
9.800000E-6	0.890281
1.000000E-5	0.877838
1.020000E-5	0.891452
1.040000E-5	0.870214
1.060000E-5	0.876476
1.080000E-5	0.890798
1.100000E-5	0.876014
1.120000E-5	0.880724
1.140000E-5	0.873155
1.160000E-5	0.878355
1.180000E-5	0.870786
1.200000E-5	0.869479
1.220000E-5	0.882358
1.240000E-5	0.887885
1.260000E-5	0.878791
1.280000E-5	0.874571
1.320000E-5	0.865708
1.360000E-5	0.879499
1.400000E-5	0.875483
1.440000E-5	0.871330
1.480000E-5	0.869356
1.520000E-5	0.872569
1.560000E-5	0.877661
1.600000E-5	0.868403
1.640000E-5	0.864700
1.680000E-5	0.874230
1.720000E-5	0.867587
1.760000E-5	0.873985
1.800000E-5	0.862332
1.840000E-5	0.862672
1.880000E-5	0.861637
1.920000E-5	0.859595
1.960000E-5	0.868376
2.000000E-5	0.864401
2.040000E-5	0.859241
2.080000E-5	0.867641
2.120000E-5	0.862305
2.160000E-5	0.865436
2.200000E-5	0.874652
2.240000E-5	0.867900
2.280000E-5	0.856137
2.320000E-5	0.865762
2.360000E-5	0.865476
2.400000E-5	0.858493
2.440000E-5	0.852543
2.480000E-5	0.854191
2.520000E-5	0.849330
2.560000E-5	0.851672
2.640000E-5	0.851202
2.720000E-5	0.865722
2.800000E-5	0.849875
2.880000E-5	0.852557
2.960000E-5	0.854272
3.040000E-5	0.837970
3.120000E-5	0.844232
3.200000E-5	0.847139
3.280000E-5	0.842476
3.360000E-5	0.842694
3.440000E-5	0.844838
3.520000E-5	0.834110
3.600000E-5	0.836125
3.680000E-5	0.832095
3.760000E-5	0.836180
3.840000E-5	0.835029
3.920000E-5	0.827283
4.000000E-5	0.832565
4.080000E-5	0.824567
4.160000E-5	0.827133
4.240000E-5	0.817120
4.320000E-5	0.829100
4.400000E-5	0.825132
4.480000E-5	0.820510
4.560000E-5	0.816433
4.640000E-5	0.809810
4.720000E-5	0.812199
4.800000E-5	0.811858
4.880000E-5	0.812614
4.960000E-5	0.814254
5.040000E-5	0.811396
5.120000E-5	0.810892
5.280000E-5	0.806183
5.440000E-5	0.802544
5.600000E-5	0.803313
5.760000E-5	0.801855
5.920000E-5	0.799197
6.080000E-5	0.799980
6.240000E-5	0.794479
6.400000E-5	0.793086
6.560000E-5	0.790465
6.720000E-5	0.790550
6.880000E-5	0.787413
7.040000E-5	0.781929
7.200000E-5	0.778181
7.360000E-5	0.775652
7.520000E-5	0.771624
7.680000E-5	0.767327
7.840000E-5	0.767390
8.000000E-5	0.766981
8.160000E-5	0.766110
8.320000E-5	0.758110
8.480000E-5	0.748820
8.640000E-5	0.755577
8.800000E-5	0.750339
8.960000E-5	0.751111
9.120000E-5	0.750111
9.280000E-5	0.746557
9.440000E-5	0.742462
9.600000E-5	0.737141
9.760000E-5	0.739122
9.920000E-5	0.739633
0.000101	0.731933
0.000102	0.731395
0.000106	0.726262
0.000109	0.721580
0.000112	0.719032
0.000115	0.715717
0.000118	0.708978
0.000122	0.706761
0.000125	0.699733
0.000128	0.695806
0.000131	0.691951
0.000134	0.687487
0.000138	0.681776
0.000141	0.678095
0.000144	0.671062
0.000147	0.671821
0.000150	0.665263
0.000154	0.659760
0.000157	0.657293
0.000160	0.649325
0.000163	0.646458
0.000166	0.645164
0.000170	0.636991
0.000173	0.640456
0.000176	0.629938
0.000179	0.625053
0.000182	0.622382
0.000186	0.614652
0.000189	0.617127
0.000192	0.607657
0.000195	0.607434
0.000198	0.603905
0.000202	0.599840
0.000205	0.594438
0.000211	0.587001
0.000218	0.580955
0.000224	0.574619
0.000230	0.565284
0.000237	0.559146
0.000243	0.551949
0.000250	0.545253
0.000256	0.536210
0.000262	0.530237
0.000269	0.522637
0.000275	0.516445
0.000282	0.509166
0.000288	0.502050
0.000294	0.497487
0.000301	0.491094
0.000307	0.484531
0.000314	0.477442
0.000320	0.472918
0.000326	0.469001
0.000333	0.462169
0.000339	0.455757
0.000346	0.449132
0.000352	0.445434
0.000358	0.439980
0.000365	0.433266
0.000371	0.428233
0.000378	0.423178
0.000384	0.416611
0.000390	0.412431
0.000397	0.406498
0.000403	0.400508
0.000410	0.395610
0.000422	0.386729
0.000435	0.376384
0.000448	0.367544
0.000461	0.357811
0.000474	0.348009
0.000486	0.339533
0.000499	0.330716
0.000512	0.324063
0.000525	0.314914
0.000538	0.305838
0.000550	0.298728
0.000563	0.290025
0.000576	0.282620
0.000589	0.276041
0.000602	0.269964
0.000614	0.260361
0.000627	0.254209
0.000640	0.249633
0.000653	0.243110
0.000666	0.238472
0.000678	0.231215
0.000691	0.224970
0.000704	0.220628
0.000717	0.214314
0.000730	0.209096
0.000742	0.204262
0.000755	0.199463
0.000768	0.194268
0.000781	0.189872
0.000794	0.183605
0.000806	0.181374
0.000819	0.175568
0.000845	0.168675
0.000870	0.159118
0.000896	0.152213
0.000922	0.144146
0.000947	0.136884
0.000973	0.130726
0.000998	0.123810
0.001024	0.117710
0.001050	0.111274
0.001075	0.107318
0.001101	0.102075
0.001126	0.097257
0.001152	0.091023
0.001178	0.088016
0.001203	0.083215
0.001229	0.079785
0.001254	0.075414
0.001280	0.072211
0.001306	0.070454
0.001331	0.068216
0.001357	0.065012
0.001382	0.062369
0.001408	0.060073
0.001434	0.057152
0.001459	0.054976
0.001485	0.053036
0.001510	0.050641
0.001536	0.049215
0.001562	0.047780
0.001587	0.045444
0.001613	0.043317
0.001638	0.040922
0.001690	0.037172
0.001741	0.034588
0.001792	0.032269
0.001843	0.030266
0.001894	0.027691
0.001946	0.024648
0.001997	0.022357
0.002048	0.020843
0.002099	0.018873
0.002150	0.016960
0.002202	0.014628
0.002253	0.012660
0.002304	0.011563
0.002355	0.010755
0.002406	0.009015
0.002458	0.007184
0.002509	0.006112
0.002560	0.005252
0.002611	0.005443
0.002662	0.005713
0.002714	0.005435
0.002765	0.004798
0.002816	0.004470
0.002867	0.003424
0.002918	0.003755
0.002970	0.002955
0.003021	0.003952
0.003072	0.003507
0.003123	0.004770
0.003174	0.004457
0.003226	0.004924
0.003277	0.003923
0.003379	0.003869
0.003482	0.001740
0.003584	-8.246370E-5
0.003686	-0.002464
0.003789	-0.003835
0.003891	-0.004799
0.003994	-0.005338
0.004096	-0.005914
0.004198	-0.005358
0.004301	-0.004267
0.004403	-0.002963
0.004506	-0.001118
0.004608	-0.001379
0.004710	-0.000618
0.004813	-0.000409
0.004915	-0.000477
0.005018	-0.000118
0.005120	-0.000110
0.005222	-0.000318
0.005325	-0.000446
0.005427	-0.001135
0.005530	-0.002340
0.005632	-0.002428
0.005734	-0.001050
0.005837	-0.000221
0.005939	0.000446
0.006042	0.001018
0.006144	0.000522
0.006246	-0.000279
0.006349	-0.002140
0.006451	-0.002625
0.006554	-0.003665
0.006758	-0.005899
0.006963	-0.006278
0.007168	-0.006524
0.007373	-0.007739
0.007578	-0.007189
0.007782	-0.007347
0.007987	-0.007051
0.008192	-0.004964
0.008397	-0.004700
0.008602	-0.004357
0.008806	-0.002266
0.009011	-0.002680
0.009216	-0.005107
0.009421	-0.004284
0.009626	-0.004934
0.009830	-0.004022
0.010035	-0.002574
0.010240	0.000141
0.010445	0.001244
0.010650	0.002657
0.010854	0.002472
0.011059	0.000863
0.011264	0.000511
0.011469	0.000466
0.011674	0.001998
0.011878	0.002866
0.012083	0.004018
0.012288	0.003525
0.012493	0.005088
0.012698	0.005097
0.012902	0.004801
0.013107	0.003214
0.013517	0.001665
0.013926	0.000619
0.014336	-0.001098
0.014746	-0.002563
0.015155	-0.003973
0.015565	-0.000146
0.015974	0.006642
0.016384	0.007029
0.016794	0.004334
0.017203	-0.000758
0.017613	-0.002089
0.018022	-0.002163
0.018432	0.000141
0.018842	0.005076
0.019251	0.005102
0.019661	0.001955
0.020070	0.001514
0.020480	0.000872
0.020890	0.000219
0.021299	0.001689
0.021709	0.000722
0.022118	-0.000614
0.022528	-0.001342
0.022938	-0.004390
0.023347	-0.006962
0.023757	-0.003927
0.024166	0.003228
0.024576	0.004693
0.024986	0.003597
0.025395	-0.000729
0.025805	-0.000397
0.026214	0.001415
0.027034	0.006501
0.027853	0.004337
0.028672	-0.003493
0.029491	-0.004369
0.030310	-0.002501
0.031130	-0.002391
0.031949	-0.001636
0.032768	-0.005996
0.033587	-0.003280
0.034406	-0.001275
0.035226	0.002047
0.036045	0.004478
0.036864	0.009600
0.037683	0.007328
0.038502	0.004385
0.039322	0.001125
0.040141	0.002225
0.040960	0.004053
0.041779	0.002818
0.042598	-0.001681
0.043418	-0.000426
0.044237	0.000169
0.045056	0.005367
0.045875	0.008706
0.046694	0.002772
0.047514	0.001389
0.048333	0.000509
0.049152	0.001852
0.049971	0.002602
0.050790	0.003279
0.051610	0.000377
0.052429	-0.001361
0.054067	0.002585
0.055706	0.007775
0.057344	0.006009
0.058982	0.001563
0.060621	0.004178
0.062259	0.005252
0.063898	5.258621E-5
0.065536	-0.002650
0.067174	-0.003929
0.068813	-0.003319
0.070451	-0.004010
0.072090	-0.003905
0.073728	-0.003689
0.075366	0.003130
0.077005	0.001988
0.078643	-0.002198
0.080282	-0.000230
0.081920	-0.005221
0.083558	-0.003419
0.085197	-0.003044
0.086835	0.000221
0.088474	-0.003200
0.090112	-0.005472
0.091750	-0.001341
0.093389	0.000798
0.095027	-0.001725
0.096666	-0.001058
0.098304	0.004176
0.099942	0.007501
0.101581	-0.001763
0.103219	-0.001020
0.104858	-0.001259
0.108134	0.004296
0.111411	0.002542
0.114688	0.005527
0.117965	-0.002459
0.121242	-0.001086
0.124518	-0.001346
0.127795	0.002280
0.131072	-5.346423E-5
0.134349	0.003523
0.137626	0.004052
0.140902	-0.005599
0.144179	0.003926
0.147456	0.007577
0.150733	0.001571
0.154010	0.001061
0.157286	-0.001400
0.160563	0.000203
0.163840	0.007292
0.167117	0.000406
0.170394	0.001657
0.173670	-0.000710
0.176947	0.007728
0.180224	0.005216
0.183501	0.001174
0.186778	-0.001215
0.190054	-0.002358
0.193331	0.001387
0.196608	-0.002843
0.199885	0.001013
0.203162	-0.001896
0.206438	0.000861
0.209715	-0.000597
0.216269	-0.000712
0.222822	8.151269E-5
0.229376	0.000902
0.235930	-0.001251
0.242483	-0.000669
0.249037	-0.006953
0.255590	-0.001365
0.262144	0.000189
0.268698	-0.004257
0.275251	0.002019
0.281805	0.000494
0.288358	-0.002217
0.294912	-0.003347
0.301466	-7.322787E-6
0.308019	-0.000127
0.314573	-0.000703
0.321126	7.274553E-5
0.327680	0.000788
0.334234	0.001839
0.340787	-0.000709
0.347341	-0.001502
0.353894	0.001416
0.360448	0.000279
0.367002	-0.002546
0.373555	0.001461
0.380109	-0.000469
0.386662	-0.000677
0.393216	9.803187E-5
0.399770	-0.002737
0.406323	0.001262
0.412877	0.004724
0.419430	0.003727
0.432538	-0.000786
0.445645	0.002944
0.458752	-0.002132
0.471859	-0.002199
0.484966	-0.000621
0.498074	0.001712
0.511181	-9.437018E-6
0.524288	0.000486
0.537395	-0.000640
0.550502	-0.001465
0.563610	-0.001342
0.576717	0.000970
0.589824	-0.000396
0.602931	2.536789E-5
0.616038	-0.001680
0.629146	-0.001046
0.642253	-0.000864
0.655360	-0.001884
0.668467	-0.000511
0.681574	-0.000626
0.694682	-0.001912
0.707789	-0.002465
0.720896	0.001270
0.734003	8.975313E-5
0.747110	-0.003860
0.760218	-0.000822
0.773325	-0.000808
0.786432	-0.001228
0.799539	0.000478
0.812646	-0.000735
0.825754	0.001323
0.838861	0.001550
0.865075	0.000236
0.891290	0.000832
0.917504	-9.642349E-5
0.943718	-0.001991
0.969933	0.000204
0.996147	-0.000166
1.022362	0.000196
1.048576	0.000661
1.074790	0.000779
1.101005	-0.001364
1.127219	0.000700
1.153434	4.543485E-5
1.179648	0.000988
1.205862	9.905420E-5
1.232077	0.003008
1.258291	0.002689
1.284506	0.001364
1.310720	0.001052
1.336934	0.000375
1.363149	0.001405
1.389363	0.000711
1.415578	0.000771
1.441792	-0.000393
1.468006	-0.000688
1.494221	0.000278
1.520435	-0.002584
1.546650	0.001949
1.572864	-0.000166
1.599078	0.001572
1.625293	-0.002093
1.651507	0.001222
1.677722	-0.000426
1.730150	0.000608
1.782579	0.000641
1.835008	0.000707
1.887437	-0.000175
1.939866	-0.001086
1.992294	-0.000887
2.044723	-0.001251
2.097152	0.000716
2.149581	-0.000546
2.202010	-0.000772
2.254438	0.000612
2.306867	-0.000606
2.359296	-0.000579
2.411725	7.125697E-5
2.464154	0.000847
2.516582	0.001596
2.569011	0.000360
2.621440	0.000201
2.673869	-0.000149
2.726298	-0.001333
2.778726	0.000492
2.831155	0.000236
2.883584	-0.000224
2.936013	0.001414
2.988442	8.082051E-5
3.040870	-0.001029
3.093299	0.000134
3.145728	5.407338E-5
3.198157	-1.464939E-5
3.250586	0.000102
3.303015	-0.000152
3.355443	7.615321E-5
3.460301	0.000443
3.565158	-0.000667
3.670016	-0.000356
3.774873	0.000836
3.879731	-0.000641
3.984589	-0.001568
4.089447	-0.000864
4.194304	0.000525
4.299161	0.002852
4.404019	0.000701
4.508877	-0.000682
4.613734	0.000479
4.718592	0.000410
4.823450	-0.000386
4.928307	-0.001190
5.033165	0.000818
5.138022	-0.001109
5.242880	-0.000721
5.347738	0.000445
5.452595	0.001806
5.557453	0.000914
5.662311	-0.001051
5.767168	-0.001748
5.872025	-0.000242
5.976883	-0.000450
6.081741	-0.000104
6.186598	-0.000835
6.291456	-0.000158
6.396314	0.000216
6.501171	-0.000537
6.606029	-0.000446
6.710886	0.000976
6.920601	-0.001530
7.130317	-0.000429
7.340032	-0.001324
7.549747	0.000217
7.759462	-0.000182
7.969178	0.000933
8.178893	-0.000119
8.388608	0.000414
8.598323	-0.000147
8.808039	0.000423
9.017754	0.000476
9.227468	-0.000258
9.437184	-0.001795
9.646899	0.001048
9.856614	0.001019
10.066330	0.000466
10.276045	0.000337
10.485760	-0.000682
10.695476	-0.001000
10.905190	-0.000106
11.114905	0.000145
11.324621	0.000519
11.534336	0.000875
11.744051	0.000387
11.953767	-0.000703
12.163482	-4.720670E-6
12.373197	-0.001169
12.582912	0.000909
12.792627	0.001367
13.002342	0.001111
13.212058	0.000493
13.421773	-0.000748
13.841203	-0.000316
14.260633	0.001177
14.680064	-0.001578
15.099494	0.000118
15.518925	0.001155
15.938355	-0.002108
16.357786	0.000577
16.777216	0.002450
17.196646	-0.001864
17.616077	-0.001737
18.035507	0.003422
18.454937	-0.002964
18.874369	0.000000
19.293798	NaN
19.713228	NaN
20.132660	NaN
20.552090	NaN
20.971519	NaN
21.390951	NaN
21.810381	NaN
22.229811	NaN
22.649242	NaN
23.068672	NaN
23.488102	NaN
23.907534	NaN
24.326963	NaN
24.746393	NaN
25.165825	NaN
25.585255	NaN
26.004684	NaN
26.424116	NaN
26.843546	NaN
27.682405	NaN
28.521267	NaN
29.360128	NaN
30.198988	NaN
31.037849	NaN
31.876711	NaN
32.715572	NaN
33.554432	NaN
34.393291	NaN
35.232155	NaN
36.071014	NaN
36.909874	NaN
37.748737	NaN
38.587597	NaN
39.426456	NaN
40.265320	NaN
41.104179	NaN
41.943039	NaN
42.781902	NaN
43.620762	NaN
44.459621	NaN
45.298485	NaN
46.137344	NaN
46.976204	NaN
47.815067	NaN
48.653927	NaN
49.492786	NaN
50.331650	NaN
51.170509	NaN
52.009369	NaN
52.848232	NaN
53.687092	NaN
55.364811	NaN
57.042534	NaN
58.720257	NaN
60.397976	NaN
62.075699	NaN
63.753422	NaN
65.431145	NaN
67.108864	NaN
68.786583	NaN
70.464310	NaN
72.142029	NaN
73.819748	NaN
75.497475	NaN
77.175194	NaN
78.852913	NaN
80.530640	NaN
82.208359	NaN
83.886078	NaN
85.563805	NaN
87.241524	NaN
88.919243	NaN
90.596970	NaN
92.274689	NaN
93.952408	NaN
95.630135	NaN
97.307854	NaN
98.985573	NaN
100.663300	NaN
102.341019	NaN
104.018738	NaN
105.696465	NaN
107.374184	NaN
110.729622	NaN
114.085068	NaN
117.440514	NaN
120.795952	NaN
124.151398	NaN
127.506844	NaN
130.862289	NaN
134.217728	NaN
137.573166	NaN
140.928619	NaN
144.284058	NaN
147.639496	NaN
150.994949	NaN
154.350388	NaN
157.705826	NaN
161.061279	NaN
164.416718	NaN
167.772156	NaN
171.127609	NaN
174.483047	NaN
177.838486	NaN
181.193939	NaN
184.549377	NaN
187.904816	NaN
191.260269	NaN
194.615707	NaN
197.971146	NaN
201.326599	NaN
204.682037	NaN
208.037476	NaN
211.392929	NaN
214.748367	NaN
221.459244	NaN
228.170135	NaN
234.881027	NaN
241.591904	NaN
248.302795	NaN
255.013687	NaN
261.724579	NaN
268.435455	NaN
275.146332	NaN
281.857239	NaN
288.568115	NaN
295.278992	NaN
301.989899	NaN
308.700775	NaN
315.411652	NaN
322.122559	NaN
328.833435	NaN
335.544312	NaN
342.255219	NaN
348.966095	NaN
355.676971	NaN
362.387878	NaN
369.098755	NaN
375.809631	NaN
382.520538	NaN
389.231415	NaN
395.942291	NaN
402.653198	NaN
409.364075	NaN
416.074951	NaN
422.785858	NaN
429.496735	NaN
442.918488	NaN
456.340271	NaN
469.762054	NaN
483.183807	NaN
496.605591	NaN
510.027374	NaN
523.449158	NaN
536.870911	NaN
550.292664	NaN
563.714478	NaN
577.136230	NaN
590.557983	NaN
603.979797	NaN
617.401550	NaN
630.823303	NaN
644.245117	NaN
657.666870	NaN
671.088623	NaN
684.510437	NaN
697.932190	NaN
711.353943	NaN
724.775757	NaN
738.197510	NaN
751.619263	NaN
765.041077	NaN
778.462830	NaN
791.884583	NaN
805.306396	NaN
818.728149	NaN
832.149902	NaN
845.571716	NaN
858.993469	NaN
885.836975	NaN
912.680542	NaN
939.524109	NaN
966.367615	NaN
993.211182	NaN
1020.054749	NaN
1046.898315	NaN
1073.741821	NaN
1100.585327	NaN
1127.428955	NaN
1154.272461	NaN
1181.115967	NaN
1207.959595	NaN
1234.803101	NaN
1261.646606	NaN
1288.490234	NaN
1315.333740	NaN
1342.177246	NaN
1369.020874	NaN
1395.864380	NaN
1422.707886	NaN
1449.551514	NaN
1476.395020	NaN
1503.238525	NaN
1530.082153	NaN
1556.925659	NaN
1583.769165	NaN
1610.612793	NaN
1637.456299	NaN
1664.299805	NaN
1691.143433	NaN
1717.986938	NaN
1771.673950	NaN
1825.361084	NaN
1879.048218	NaN
1932.735229	NaN
1986.422363	NaN
2040.109497	NaN
2093.796631	NaN
2147.483643	NaN
2201.170654	NaN
2254.857910	NaN
2308.544922	NaN
2362.231934	NaN
2415.919189	NaN
2469.606201	NaN
2523.293213	NaN
2576.980469	NaN
2630.667480	NaN
2684.354492	NaN
2738.041748	NaN
2791.728760	NaN
2845.415771	NaN
2899.103027	NaN
2952.790039	NaN
3006.477051	NaN
3060.164307	NaN
3113.851318	NaN
3167.538330	NaN
3221.225586	NaN
3274.912598	NaN
3328.599609	NaN
3382.286865	NaN
3435.973877	NaN
0.000000	NaN
0.000000	NaN
0.000000	NaN
0.000000	NaN
0.000000	NaN
0.000000	NaN
0.000000	NaN
0.000000	NaN
0.000000	NaN
0.000000	NaN
0.000000	NaN
0.000000	NaN
0.000000	NaN
0.000000	NaN
0.000000	NaN
0.000000	NaN
0.000000	NaN
0.000000	NaN
0.000000	NaN
0.000000	NaN
0.000000	NaN
0.000000	NaN
0.000000	NaN
0.000000	NaN
0.000000	NaN
0.000000	NaN
0.000000	NaN
0.000000	NaN
0.000000	NaN
0.000000	NaN
0.000000	NaN
0.000000	NaN

Count Rate History (KHz)  CR CHA / CR CHB
0.000000	89.693069	88.644028
0.104858	103.158951	102.558136
0.209715	98.514557	102.100372
0.314573	80.595016	83.904266
0.419430	103.006363	106.477737
0.524288	101.642609	102.920532
0.629146	105.314255	107.173920
0.734003	99.220276	105.981827
0.838861	83.389282	83.580017
0.943718	95.090866	96.168518
1.048576	83.608627	84.247589
1.153434	89.092255	92.792511
1.258291	90.293884	87.699890
1.363149	100.612640	106.859207
1.468006	102.386475	103.921890
1.572864	79.097748	78.392029
1.677722	93.946457	96.435547
1.782579	93.355179	94.861984
1.887437	108.270645	111.036301
1.992294	95.863342	94.938278
2.097152	77.867508	78.353882
2.202010	80.442429	85.620880
2.306867	115.032196	113.410950
2.411725	93.412399	91.695786
2.516582	86.650848	85.554123
2.621440	77.533722	75.244904
2.726298	103.902817	106.334686
2.831155	97.312927	103.912354
2.936013	109.062195	111.646652
3.040870	114.822388	117.139816
3.145728	82.664490	86.469650
3.250586	100.917816	98.905563
3.355443	84.972382	89.235306
3.460301	96.817017	99.039078
3.565158	102.481842	105.133057
3.670016	86.441040	86.278915
3.774874	94.594955	98.838806
3.879731	95.386505	94.566345
3.984589	96.321106	96.921921
4.089446	111.560822	113.239288
4.194304	116.147995	121.469498
4.299162	105.018616	104.560852
4.404019	102.806091	108.594894
4.508877	97.312927	95.720291
4.613734	81.748962	81.624985
4.718592	85.983276	85.458755
4.823450	106.897354	104.417801
4.928307	86.002350	88.033676
5.033165	85.935593	88.872910
5.138022	99.134445	102.701187
5.242880	95.252991	100.297928
5.347738	89.502335	91.571808
5.452595	97.064972	99.115372
5.557453	93.069077	96.187592
5.662310	104.255676	109.100342
5.767168	92.716217	96.092224
5.872026	75.302124	70.438385
5.976883	94.308853	99.449158
6.081741	95.338821	96.893311
6.186598	98.333359	102.910995
6.291456	97.742081	97.923279
6.396314	76.274872	75.712204
6.501171	94.280243	95.500946
6.606029	92.658997	94.118118
6.710886	92.773437	94.356537
6.815744	82.101822	87.890625
6.920602	92.105865	92.639923
7.025459	94.871521	96.216202
7.130317	90.599060	94.566345
7.235174	92.163086	92.058182
7.340032	97.208023	103.988647
7.444890	90.293884	93.708038
7.549747	84.877014	86.860657
7.654605	96.902847	99.639893
7.759462	100.431442	100.622177
7.864320	93.021393	95.901489
7.969178	82.836151	85.592270
8.074035	86.984634	85.573196
8.178893	83.475113	84.981918
8.283750	90.379715	93.574524
8.388608	97.589493	98.381042
8.493466	102.367401	105.962753
8.598323	112.829208	115.776062
8.703181	103.464127	103.015900
8.808038	95.014572	96.635818
8.912896	90.026855	91.419220
9.017754	100.212097	101.089478
9.122611	89.092255	92.201233
9.227469	85.077286	84.304810
9.332326	87.404251	90.999603
9.437184	99.039078	100.059509
9.542042	117.511749	126.981735
9.646899	91.991425	86.774826
9.751757	99.315643	103.063583
9.856614	81.501007	85.506439
9.961472	95.214844	92.611313
10.066330	72.517395	74.043274
10.171187	84.466934	87.137222
10.276045	106.954575	110.216141
10.380902	93.774796	99.477768
10.485760	95.748901	93.288422
10.590618	98.237991	99.601746
10.695475	96.502304	97.608566
10.800333	91.152191	92.964172
10.905190	83.961487	89.063644
11.010048	101.804733	104.150772
11.114906	99.353790	103.836060
11.219763	86.355209	86.717606
11.324621	81.815720	81.853867
11.429478	97.723007	101.604462
11.534336	100.202560	101.385117
11.639194	105.876923	106.239319
11.744051	85.783005	88.939667
11.848909	86.612701	89.302063
11.953766	107.936859	109.481812
12.058624	100.984573	105.581284
12.163482	98.724365	98.876953
12.268339	103.349686	104.532242
12.373197	99.077225	103.139877
12.478054	95.119476	96.282959
12.582912	91.972351	93.488693
12.687770	102.787018	113.315582
12.792627	98.628998	94.118118
12.897485	105.915070	107.564926
13.002342	94.795227	100.069046
13.107200	95.109940	96.616745
13.212058	96.740723	100.364685
13.316915	98.466873	100.460052
13.421773	96.149445	96.626282
13.526630	85.487366	87.490082
13.631488	88.939667	85.573196
13.736346	97.494125	100.831985
13.841203	99.811554	108.680725
13.946061	98.934174	98.266602
14.050918	113.544464	115.137100
14.155776	108.022690	109.863281
14.260634	89.826584	92.496872
14.365491	100.393295	101.404190
14.470349	99.487305	99.039078
14.575206	116.014481	120.115280
14.680064	91.981888	95.825195
14.784922	100.526810	101.423264
14.889779	85.840225	86.917877
14.994637	112.419128	114.898682
15.099494	85.496902	87.575912
15.204352	92.391968	97.646713
15.309210	84.285736	86.078644
15.414067	102.367401	104.761124
15.518925	90.293884	91.629028
15.623782	106.229782	110.168457
15.728640	89.483261	87.604523
15.833498	102.329254	106.649399
15.938355	98.094940	101.289749
16.043213	91.724396	96.139908
16.148070	93.240738	96.158981
16.252928	91.428757	92.821121
16.357786	97.265244	100.183487
16.462643	85.039139	86.231232
16.567501	92.382431	95.586777
16.672358	104.122162	104.846954
16.777216	95.100403	102.329254
16.882074	101.766586	101.690292
16.986931	106.716156	116.291046
17.091789	114.374161	113.067627
17.196646	98.371506	106.630325
17.301504	111.236572	113.134384
17.406362	102.481842	100.536346
17.511219	93.317032	98.686218
17.616077	82.626343	80.680847
17.720934	94.747543	97.980499
17.825792	90.217590	90.675354
17.930650	83.074570	85.058212
18.035507	83.055496	84.390640
18.140365	92.267990	95.472336
18.245222	93.383789	97.026825
18.350080	98.047256	100.116730
18.454938	108.146667	113.611221
18.559795	100.450516	105.218887
18.664653	90.131760	88.281631
18.769510	112.829208	115.194321
18.874368	96.073151	98.323822
18.979226	87.509155	89.464188
19.084083	101.881027	103.912354
19.188941	84.447861	85.115433
19.293798	96.006393	96.082687
19.398656	86.402893	87.623596
19.503514	89.120865	92.287064
19.608371	90.732574	90.970993
19.713229	104.532242	104.751587
