1/9/2026	11:07 AM
Pseudo Cross Correlation
Scattering angle:	130.0
Duration (s):	20
Wavelength (nm):	632.8
Refractive index:	1.330
Viscosity (mPas):	0.773
Temperature (K):	304.6
Laser intensity (mW):	8.534460
Average Count rate  A (kHz):	107.4
Average Count rate  B (kHz):	109.1
Intercept:	0.8738
Cumulant 1st	96.96
Cumulant 2nd	92.99	20.24
Cumulant 3rd	89.94	33.71

Lag time (s)         g2-1
1.250000E-8	0.866614
2.500000E-8	0.902073
3.750000E-8	0.894843
5.000000E-8	0.872466
6.250000E-8	0.857663
7.500000E-8	0.854564
8.750000E-8	0.862827
1.000000E-7	0.899319
1.125000E-7	0.906549
1.250000E-7	0.880729
1.375000E-7	0.871433
1.500000E-7	0.886925
1.625000E-7	0.829089
1.750000E-7	0.870745
1.875000E-7	0.879696
2.000000E-7	0.902417
2.125000E-7	0.875565
2.250000E-7	0.925483
2.375000E-7	0.877974
2.500000E-7	0.872122
2.625000E-7	0.832531
2.750000E-7	0.876253
2.875000E-7	0.877974
3.000000E-7	0.894155
3.125000E-7	0.848367
3.250000E-7	0.874876
3.375000E-7	0.882794
3.500000E-7	0.891401
3.625000E-7	0.893811
3.750000E-7	0.882794
3.875000E-7	0.901040
4.000000E-7	0.889679
4.125000E-7	0.897942
4.250000E-7	0.837351
4.375000E-7	0.870056
4.500000E-7	0.855597
4.625000E-7	0.913090
4.750000E-7	0.926516
4.875000E-7	0.902762
5.000000E-7	0.881417
5.125000E-7	0.872122
5.250000E-7	0.906549
5.375000E-7	0.895532
5.500000E-7	0.835285
5.625000E-7	0.858007
5.750000E-7	0.838384
5.875000E-7	0.870056
6.000000E-7	0.957844
6.125000E-7	0.908270
6.250000E-7	0.872466
6.375000E-7	0.887958
6.500000E-7	0.915155
6.625000E-7	0.855941
6.750000E-7	0.863171
6.875000E-7	0.860073
7.000000E-7	0.837351
7.125000E-7	0.850089
7.250000E-7	0.881417
7.375000E-7	0.907926
7.500000E-7	0.870401
7.625000E-7	0.893811
7.750000E-7	0.879007
7.875000E-7	0.850777
8.000000E-7	0.869368
8.250000E-7	0.828056
8.500000E-7	0.876769
8.750000E-7	0.854392
9.000000E-7	0.879524
9.250000E-7	0.901901
9.500000E-7	0.904999
9.750000E-7	0.901212
1.000000E-6	0.892434
1.025000E-6	0.894499
1.050000E-6	0.888819
1.075000E-6	0.829089
1.100000E-6	0.865925
1.125000E-6	0.879524
1.150000E-6	0.877802
1.175000E-6	0.878835
1.200000E-6	0.868507
1.225000E-6	0.846818
1.250000E-6	0.893466
1.275000E-6	0.861622
1.300000E-6	0.886581
1.325000E-6	0.879524
1.350000E-6	0.865409
1.375000E-6	0.862655
1.400000E-6	0.898975
1.425000E-6	0.840621
1.450000E-6	0.855941
1.475000E-6	0.874360
1.500000E-6	0.895016
1.525000E-6	0.855081
1.550000E-6	0.854392
1.575000E-6	0.887442
1.600000E-6	0.888475
1.650000E-6	0.863687
1.700000E-6	0.873413
1.750000E-6	0.875995
1.800000E-6	0.862999
1.850000E-6	0.865323
1.900000E-6	0.890626
1.950000E-6	0.854822
2.000000E-6	0.857835
2.050000E-6	0.859900
2.100000E-6	0.876167
2.150000E-6	0.848109
2.200000E-6	0.857404
2.250000E-6	0.866269
2.300000E-6	0.855855
2.350000E-6	0.850777
2.400000E-6	0.877114
2.450000E-6	0.864290
2.500000E-6	0.868937
2.550000E-6	0.863687
2.600000E-6	0.875048
2.650000E-6	0.858609
2.700000E-6	0.866183
2.750000E-6	0.854478
2.800000E-6	0.873671
2.850000E-6	0.841138
2.900000E-6	0.848626
2.950000E-6	0.877888
3.000000E-6	0.836318
3.050000E-6	0.850605
3.100000E-6	0.870573
3.150000E-6	0.849056
3.200000E-6	0.863601
3.300000E-6	0.867087
3.400000E-6	0.869798
3.500000E-6	0.860761
3.600000E-6	0.848109
3.700000E-6	0.871089
3.800000E-6	0.850562
3.900000E-6	0.868335
4.000000E-6	0.857663
4.100000E-6	0.853790
4.200000E-6	0.859771
4.300000E-6	0.856716
4.400000E-6	0.856329
4.500000E-6	0.842644
4.600000E-6	0.855640
4.700000E-6	0.867345
4.800000E-6	0.849314
4.900000E-6	0.860804
5.000000E-6	0.848066
5.100000E-6	0.863859
5.200000E-6	0.852585
5.300000E-6	0.857878
5.400000E-6	0.871907
5.500000E-6	0.837824
5.600000E-6	0.835888
5.700000E-6	0.851036
5.800000E-6	0.866743
5.900000E-6	0.864763
6.000000E-6	0.865366
6.100000E-6	0.859384
6.200000E-6	0.845140
6.300000E-6	0.850003
6.400000E-6	0.846259
6.600000E-6	0.856780
6.800000E-6	0.849745
7.000000E-6	0.862612
7.200000E-6	0.858394
7.400000E-6	0.833521
7.600000E-6	0.853424
7.800000E-6	0.831219
8.000000E-6	0.842795
8.200000E-6	0.855662
8.400000E-6	0.847012
8.600000E-6	0.849766
8.800000E-6	0.847614
9.000000E-6	0.834661
9.200000E-6	0.827389
9.400000E-6	0.844258
9.600000E-6	0.845248
9.800000E-6	0.846388
1.000000E-5	0.833026
1.020000E-5	0.852111
1.040000E-5	0.858738
1.060000E-5	0.847937
1.080000E-5	0.827625
1.100000E-5	0.834446
1.120000E-5	0.841159
1.140000E-5	0.835608
1.160000E-5	0.838169
1.180000E-5	0.841891
1.200000E-5	0.839911
1.220000E-5	0.833413
1.240000E-5	0.830164
1.260000E-5	0.822827
1.280000E-5	0.833306
1.320000E-5	0.831025
1.360000E-5	0.833370
1.400000E-5	0.822472
1.440000E-5	0.830369
1.480000E-5	0.825936
1.520000E-5	0.824430
1.560000E-5	0.820213
1.600000E-5	0.819976
1.640000E-5	0.819019
1.680000E-5	0.822773
1.720000E-5	0.816308
1.760000E-5	0.822063
1.800000E-5	0.814952
1.840000E-5	0.818276
1.880000E-5	0.811789
1.920000E-5	0.813790
1.960000E-5	0.811413
2.000000E-5	0.810842
2.040000E-5	0.812650
2.080000E-5	0.809078
2.120000E-5	0.808788
2.160000E-5	0.806431
2.200000E-5	0.803763
2.240000E-5	0.800654
2.280000E-5	0.797276
2.320000E-5	0.803204
2.360000E-5	0.801859
2.400000E-5	0.801042
2.440000E-5	0.799094
2.480000E-5	0.810810
2.520000E-5	0.796276
2.560000E-5	0.792478
2.640000E-5	0.789552
2.720000E-5	0.785953
2.800000E-5	0.783608
2.880000E-5	0.788460
2.960000E-5	0.781488
3.040000E-5	0.780154
3.120000E-5	0.779261
3.200000E-5	0.772742
3.280000E-5	0.778481
3.360000E-5	0.771515
3.440000E-5	0.768912
3.520000E-5	0.766158
3.600000E-5	0.773936
3.680000E-5	0.765033
3.760000E-5	0.764662
3.840000E-5	0.758293
3.920000E-5	0.754679
4.000000E-5	0.755905
4.080000E-5	0.754727
4.160000E-5	0.749671
4.240000E-5	0.748380
4.320000E-5	0.745830
4.400000E-5	0.744168
4.480000E-5	0.740639
4.560000E-5	0.742247
4.640000E-5	0.738546
4.720000E-5	0.733264
4.800000E-5	0.733856
4.880000E-5	0.736874
4.960000E-5	0.729165
5.040000E-5	0.731150
5.120000E-5	0.727272
5.280000E-5	0.722793
5.440000E-5	0.719012
5.600000E-5	0.713530
5.760000E-5	0.712584
5.920000E-5	0.708617
6.080000E-5	0.701715
6.240000E-5	0.698904
6.400000E-5	0.695020
6.560000E-5	0.692462
6.720000E-5	0.685951
6.880000E-5	0.685982
7.040000E-5	0.679412
7.200000E-5	0.674867
7.360000E-5	0.674022
7.520000E-5	0.669821
7.680000E-5	0.665717
7.840000E-5	0.659927
8.000000E-5	0.654647
8.160000E-5	0.654371
8.320000E-5	0.648298
8.480000E-5	0.645264
8.640000E-5	0.642200
8.800000E-5	0.638443
8.960000E-5	0.634258
9.120000E-5	0.632091
9.280000E-5	0.629184
9.440000E-5	0.626497
9.600000E-5	0.620650
9.760000E-5	0.618076
9.920000E-5	0.615513
0.000101	0.614082
0.000102	0.608757
0.000106	0.602737
0.000109	0.591339
0.000112	0.588891
0.000115	0.579618
0.000118	0.573855
0.000122	0.564990
0.000125	0.561017
0.000128	0.555108
0.000131	0.548973
0.000134	0.544269
0.000138	0.538222
0.000141	0.532935
0.000144	0.524718
0.000147	0.516859
0.000150	0.513013
0.000154	0.507924
0.000157	0.504994
0.000160	0.498408
0.000163	0.492029
0.000166	0.485839
0.000170	0.480228
0.000173	0.475521
0.000176	0.468212
0.000179	0.462455
0.000182	0.460388
0.000186	0.453268
0.000189	0.451283
0.000192	0.444715
0.000195	0.440565
0.000198	0.435062
0.000202	0.429691
0.000205	0.424117
0.000211	0.417907
0.000218	0.409028
0.000224	0.400417
0.000230	0.390289
0.000237	0.382410
0.000243	0.374812
0.000250	0.367766
0.000256	0.359492
0.000262	0.350944
0.000269	0.342480
0.000275	0.336628
0.000282	0.329153
0.000288	0.322205
0.000294	0.314429
0.000301	0.306330
0.000307	0.300109
0.000314	0.296604
0.000320	0.289410
0.000326	0.282117
0.000333	0.277011
0.000339	0.272036
0.000346	0.265981
0.000352	0.260229
0.000358	0.255365
0.000365	0.250364
0.000371	0.243239
0.000378	0.238270
0.000384	0.234063
0.000390	0.228166
0.000397	0.222831
0.000403	0.219135
0.000410	0.216401
0.000422	0.208258
0.000435	0.198923
0.000448	0.189680
0.000461	0.182297
0.000474	0.174322
0.000486	0.167768
0.000499	0.162228
0.000512	0.153407
0.000525	0.148524
0.000538	0.141620
0.000550	0.135711
0.000563	0.130082
0.000576	0.123943
0.000589	0.119615
0.000602	0.114985
0.000614	0.109278
0.000627	0.104355
0.000640	0.099782
0.000653	0.095858
0.000666	0.090824
0.000678	0.087504
0.000691	0.083757
0.000704	0.081521
0.000717	0.078269
0.000730	0.075084
0.000742	0.071382
0.000755	0.068771
0.000768	0.065339
0.000781	0.063050
0.000794	0.059837
0.000806	0.056087
0.000819	0.053314
0.000845	0.049106
0.000870	0.044813
0.000896	0.040739
0.000922	0.037221
0.000947	0.033555
0.000973	0.031450
0.000998	0.029105
0.001024	0.027176
0.001050	0.025314
0.001075	0.022801
0.001101	0.021082
0.001126	0.019422
0.001152	0.017468
0.001178	0.018090
0.001203	0.016254
0.001229	0.016440
0.001254	0.016041
0.001280	0.014837
0.001306	0.014729
0.001331	0.014357
0.001357	0.014849
0.001382	0.013288
0.001408	0.012936
0.001434	0.013167
0.001459	0.010834
0.001485	0.010893
0.001510	0.011113
0.001536	0.009844
0.001562	0.009163
0.001587	0.008646
0.001613	0.009608
0.001638	0.009463
0.001690	0.007372
0.001741	0.004913
0.001792	0.004265
0.001843	0.003781
0.001894	0.002922
0.001946	0.001471
0.001997	0.000749
0.002048	-0.000121
0.002099	0.000137
0.002150	0.000327
0.002202	0.000654
0.002253	0.000125
0.002304	0.001141
0.002355	0.001609
0.002406	0.001125
0.002458	0.001624
0.002509	0.001726
0.002560	0.003530
0.002611	0.005326
0.002662	0.005815
0.002714	0.006552
0.002765	0.006753
0.002816	0.007275
0.002867	0.007257
0.002918	0.007442
0.002970	0.006947
0.003021	0.006780
0.003072	0.007342
0.003123	0.006485
0.003174	0.004385
0.003226	0.002651
0.003277	0.001032
0.003379	-0.000347
0.003482	-0.000793
0.003584	-0.001618
0.003686	-0.001706
0.003789	-0.000652
0.003891	-0.003261
0.003994	-0.005317
0.004096	-0.006136
0.004198	-0.005150
0.004301	-0.004164
0.004403	-0.002090
0.004506	-0.000516
0.004608	0.001373
0.004710	0.001171
0.004813	6.502235E-5
0.004915	-0.001341
0.005018	-0.000762
0.005120	-0.001515
0.005222	-0.000630
0.005325	0.000485
0.005427	-0.000571
0.005530	-0.000733
0.005632	0.000237
0.005734	9.263073E-5
0.005837	-2.547768E-5
0.005939	-0.000418
0.006042	-0.001084
0.006144	-0.001091
0.006246	0.001101
0.006349	0.000969
0.006451	-0.000536
0.006554	-0.000146
0.006758	-0.002193
0.006963	-0.000224
0.007168	0.001502
0.007373	0.003154
0.007578	0.004840
0.007782	0.002014
0.007987	0.001023
0.008192	0.002321
0.008397	0.002618
0.008602	0.002332
0.008806	0.001072
0.009011	-0.000577
0.009216	-0.002692
0.009421	-0.004042
0.009626	-0.004932
0.009830	-0.003189
0.010035	-0.003544
0.010240	-0.004131
0.010445	-0.003077
0.010650	-0.000674
0.010854	-0.000453
0.011059	-0.001940
0.011264	-0.001295
0.011469	0.000534
0.011674	0.002712
0.011878	0.005753
0.012083	0.004873
0.012288	0.002601
0.012493	-0.002184
0.012698	-0.004730
0.012902	-0.004077
0.013107	-0.002238
0.013517	-0.002509
0.013926	-0.006142
0.014336	-0.004059
0.014746	-0.002055
0.015155	0.000490
0.015565	-0.001715
0.015974	-0.003733
0.016384	-0.002146
0.016794	-0.000468
0.017203	0.003930
0.017613	0.002163
0.018022	0.002379
0.018432	0.004984
0.018842	0.001383
0.019251	-0.002168
0.019661	-0.001443
0.020070	-0.003070
0.020480	-0.003995
0.020890	-0.005869
0.021299	-0.002765
0.021709	-0.001304
0.022118	0.001612
0.022528	0.003233
0.022938	0.000792
0.023347	0.003043
0.023757	0.002984
0.024166	-0.001691
0.024576	3.871203E-5
0.024986	-0.000586
0.025395	-0.004447
0.025805	-0.003440
0.026214	0.002525
0.027034	0.001097
0.027853	0.002034
0.028672	-0.000493
0.029491	-0.003006
0.030310	-0.003418
0.031130	-0.005166
0.031949	-0.003091
0.032768	-0.000424
0.033587	0.002244
0.034406	0.001545
0.035226	0.001259
0.036045	0.002197
0.036864	0.001367
0.037683	-0.002367
0.038502	-0.004894
0.039322	-0.002278
0.040141	0.001007
0.040960	-0.003480
0.041779	-0.003299
0.042598	0.000556
0.043418	0.004760
0.044237	-0.001616
0.045056	0.002247
0.045875	-0.000950
0.046694	-0.000152
0.047514	-0.000703
0.048333	-0.000484
0.049152	0.001280
0.049971	0.003135
0.050790	-0.000144
0.051610	0.001383
0.052429	0.003687
0.054067	0.003248
0.055706	-0.000959
0.057344	0.006660
0.058982	2.290633E-5
0.060621	0.001924
0.062259	0.000678
0.063898	-0.004094
0.065536	-0.002117
0.067174	-0.001899
0.068813	-0.001374
0.070451	-0.000984
0.072090	0.001991
0.073728	-0.002219
0.075366	-0.000670
0.077005	0.002170
0.078643	0.003443
0.080282	0.001779
0.081920	-0.002928
0.083558	-0.000595
0.085197	-0.000432
0.086835	0.002037
0.088474	0.006605
0.090112	-0.001888
0.091750	0.001903
0.093389	0.002457
0.095027	0.000152
0.096666	-0.005285
0.098304	-0.005100
0.099942	0.002995
0.101581	-0.002070
0.103219	0.001339
0.104858	0.000775
0.108134	-0.002389
0.111411	-0.000601
0.114688	0.000958
0.117965	-0.000610
0.121242	-0.003061
0.124518	0.001853
0.127795	-0.003046
0.131072	0.000791
0.134349	-0.003958
0.137626	-0.002859
0.140902	0.001768
0.144179	-0.001951
0.147456	-0.002983
0.150733	0.000268
0.154010	-0.000499
0.157286	-0.003389
0.160563	-0.000823
0.163840	0.002360
0.167117	0.000755
0.170394	-0.000208
0.173670	0.000751
0.176947	-0.003215
0.180224	-0.002076
0.183501	-0.002312
0.186778	0.003010
0.190054	0.001498
0.193331	0.001521
0.196608	0.000595
0.199885	0.000953
0.203162	-3.622775E-5
0.206438	-0.000313
0.209715	0.000297
0.216269	-0.002256
0.222822	0.000119
0.229376	0.000371
0.235930	-0.001827
0.242483	0.000357
0.249037	0.001516
0.255590	-0.000631
0.262144	-0.001691
0.268698	-0.000886
0.275251	-0.000701
0.281805	-0.000443
0.288358	-9.543455E-5
0.294912	0.001499
0.301466	-0.000310
0.308019	-0.002499
0.314573	0.000493
0.321126	-0.001781
0.327680	-6.966538E-5
0.334234	-0.000254
0.340787	-0.001709
0.347341	-0.000538
0.353894	0.001435
0.360448	-0.002256
0.367002	-0.001334
0.373555	0.002165
0.380109	-0.001191
0.386662	0.002277
0.393216	0.002196
0.399770	0.003064
0.406323	0.003063
0.412877	0.000797
0.419430	0.000975
0.432538	-0.001519
0.445645	0.001262
0.458752	0.000365
0.471859	-0.000283
0.484966	0.000897
0.498074	-0.001358
0.511181	0.000410
0.524288	-0.001074
0.537395	-0.000414
0.550502	-0.002230
0.563610	1.513126E-5
0.576717	-0.000588
0.589824	0.000340
0.602931	-0.000554
0.616038	0.000571
0.629146	0.000872
0.642253	1.241795E-5
0.655360	-0.000279
0.668467	-9.874080E-5
0.681574	-0.000653
0.694682	0.000874
0.707789	-0.002452
0.720896	-0.000826
0.734003	-0.000482
0.747110	0.000225
0.760218	5.379825E-5
0.773325	0.000322
0.786432	0.000496
0.799539	-7.286105E-5
0.812646	0.002178
0.825754	0.000172
0.838861	0.000457
0.865075	0.000610
0.891290	0.000891
0.917504	-0.000428
0.943718	0.000408
0.969933	-4.595533E-5
0.996147	-0.000324
1.022362	0.000871
1.048576	0.000833
1.074790	0.000244
1.101005	-0.000371
1.127219	-0.001023
1.153434	0.000318
1.179648	-0.000635
1.205862	0.001315
1.232077	-0.000753
1.258291	0.001536
1.284506	0.001029
1.310720	0.000280
1.336934	0.000622
1.363149	-0.000245
1.389363	-0.000815
1.415578	0.000666
1.441792	-0.000945
1.468006	-0.000754
1.494221	-0.000372
1.520435	-0.000130
1.546650	0.001112
1.572864	-0.000521
1.599078	-0.000656
1.625293	-0.000104
1.651507	0.000638
1.677722	-0.000287
1.730150	0.000667
1.782579	-0.000123
1.835008	-0.000447
1.887437	-0.000492
1.939866	0.000166
1.992294	-8.688829E-5
2.044723	0.000121
2.097152	-8.901534E-5
2.149581	1.367020E-5
2.202010	0.000513
2.254438	0.000418
2.306867	-0.000642
2.359296	6.292010E-5
2.411725	-0.000401
2.464154	0.000124
2.516582	0.000483
2.569011	0.000223
2.621440	0.000407
2.673869	0.000419
2.726298	-0.001364
2.778726	-0.000252
2.831155	-0.000640
2.883584	0.000971
2.936013	-0.000472
2.988442	-5.056183E-5
3.040870	0.000102
3.093299	0.000194
3.145728	-0.000105
3.198157	-0.000119
3.250586	0.000255
3.303015	0.001181
3.355443	-0.000292
3.460301	-0.000208
3.565158	-0.000255
3.670016	-0.000728
3.774873	-0.000101
3.879731	0.000132
3.984589	-0.000571
4.089447	-4.685178E-5
4.194304	0.000232
4.299161	0.000431
4.404019	-0.000643
4.508877	0.000350
4.613734	-0.000216
4.718592	-6.744808E-5
4.823450	-0.000338
4.928307	-1.530441E-5
5.033165	-0.000525
5.138022	-1.505886E-5
5.242880	0.000248
5.347738	0.000241
5.452595	-0.000167
5.557453	2.986517E-5
5.662311	2.137635E-5
5.767168	0.000422
5.872025	-4.339274E-5
5.976883	-0.000294
6.081741	-0.000170
6.186598	-9.566018E-5
6.291456	-6.773220E-5
6.396314	0.000463
6.501171	0.000359
6.606029	9.670459E-5
6.710886	-0.000215
6.920601	-0.000117
7.130317	-0.000434
7.340032	4.192188E-5
7.549747	0.000197
7.759462	4.649075E-5
7.969178	-0.000194
8.178893	0.000225
8.388608	8.887010E-5
8.598323	0.000310
8.808039	-0.000469
9.017754	0.000216
9.227468	0.000107
9.437184	0.000112
9.646899	0.000186
9.856614	8.940382E-5
10.066330	-0.000646
10.276045	0.000183
10.485760	-0.000635
10.695476	0.000514
10.905190	0.000254
11.114905	-6.315948E-5
11.324621	-0.000381
11.534336	-2.890533E-5
11.744051	-1.737734E-5
11.953767	0.000350
12.163482	-0.000258
12.373197	-3.182922E-5
12.582912	-0.000721
12.792627	0.000245
13.002342	-0.000532
13.212058	0.000265
13.421773	-0.000919
13.841203	-0.000269
14.260633	-3.881636E-5
14.680064	-0.000294
15.099494	-0.000254
15.518925	-3.682706E-5
15.938355	1.318936E-5
16.357786	-0.000327
16.777216	0.000155
17.196646	-0.000130
17.616077	0.000658
18.035507	-0.000369
18.454937	5.938165E-5
18.874369	0.000000
19.293798	NaN
19.713228	NaN
20.132660	NaN
20.552090	NaN
20.971519	NaN
21.390951	NaN
21.810381	NaN
22.229811	NaN
22.649242	NaN
23.068672	NaN
23.488102	NaN
23.907534	NaN
24.326963	NaN
24.746393	NaN
25.165825	NaN
25.585255	NaN
26.004684	NaN
26.424116	NaN
26.843546	NaN
27.682405	NaN
28.521267	NaN
29.360128	NaN
30.198988	NaN
31.037849	NaN
31.876711	NaN
32.715572	NaN
33.554432	NaN
34.393291	NaN
35.232155	NaN
36.071014	NaN
36.909874	NaN
37.748737	NaN
38.587597	NaN
39.426456	NaN
40.265320	NaN
41.104179	NaN
41.943039	NaN
42.781902	NaN
43.620762	NaN
44.459621	NaN
45.298485	NaN
46.137344	NaN
46.976204	NaN
47.815067	NaN
48.653927	NaN
49.492786	NaN
50.331650	NaN
51.170509	NaN
52.009369	NaN
52.848232	NaN
53.687092	NaN
55.364811	NaN
57.042534	NaN
58.720257	NaN
60.397976	NaN
62.075699	NaN
63.753422	NaN
65.431145	NaN
67.108864	NaN
68.786583	NaN
70.464310	NaN
72.142029	NaN
73.819748	NaN
75.497475	NaN
77.175194	NaN
78.852913	NaN
80.530640	NaN
82.208359	NaN
83.886078	NaN
85.563805	NaN
87.241524	NaN
88.919243	NaN
90.596970	NaN
92.274689	NaN
93.952408	NaN
95.630135	NaN
97.307854	NaN
98.985573	NaN
100.663300	NaN
102.341019	NaN
104.018738	NaN
105.696465	NaN
107.374184	NaN
110.729622	NaN
114.085068	NaN
117.440514	NaN
120.795952	NaN
124.151398	NaN
127.506844	NaN
130.862289	NaN
134.217728	NaN
137.573166	NaN
140.928619	NaN
144.284058	NaN
147.639496	NaN
150.994949	NaN
154.350388	NaN
157.705826	NaN
161.061279	NaN
164.416718	NaN
167.772156	NaN
171.127609	NaN
174.483047	NaN
177.838486	NaN
181.193939	NaN
184.549377	NaN
187.904816	NaN
191.260269	NaN
194.615707	NaN
197.971146	NaN
201.326599	NaN
204.682037	NaN
208.037476	NaN
211.392929	NaN
214.748367	NaN
221.459244	NaN
228.170135	NaN
234.881027	NaN
241.591904	NaN
248.302795	NaN
255.013687	NaN
261.724579	NaN
268.435455	NaN
275.146332	NaN
281.857239	NaN
288.568115	NaN
295.278992	NaN
301.989899	NaN
308.700775	NaN
315.411652	NaN
322.122559	NaN
328.833435	NaN
335.544312	NaN
342.255219	NaN
348.966095	NaN
355.676971	NaN
362.387878	NaN
369.098755	NaN
375.809631	NaN
382.520538	NaN
389.231415	NaN
395.942291	NaN
402.653198	NaN
409.364075	NaN
416.074951	NaN
422.785858	NaN
429.496735	NaN
442.918488	NaN
456.340271	NaN
469.762054	NaN
483.183807	NaN
496.605591	NaN
510.027374	NaN
523.449158	NaN
536.870911	NaN
550.292664	NaN
563.714478	NaN
577.136230	NaN
590.557983	NaN
603.979797	NaN
617.401550	NaN
630.823303	NaN
644.245117	NaN
657.666870	NaN
671.088623	NaN
684.510437	NaN
697.932190	NaN
711.353943	NaN
724.775757	NaN
738.197510	NaN
751.619263	NaN
765.041077	NaN
778.462830	NaN
791.884583	NaN
805.306396	NaN
818.728149	NaN
832.149902	NaN
845.571716	NaN
858.993469	NaN
885.836975	NaN
912.680542	NaN
939.524109	NaN
966.367615	NaN
993.211182	NaN
1020.054749	NaN
1046.898315	NaN
1073.741821	NaN
1100.585327	NaN
1127.428955	NaN
1154.272461	NaN
1181.115967	NaN
1207.959595	NaN
1234.803101	NaN
1261.646606	NaN
1288.490234	NaN
1315.333740	NaN
1342.177246	NaN
1369.020874	NaN
1395.864380	NaN
1422.707886	NaN
1449.551514	NaN
1476.395020	NaN
1503.238525	NaN
1530.082153	NaN
1556.925659	NaN
1583.769165	NaN
1610.612793	NaN
1637.456299	NaN
1664.299805	NaN
1691.143433	NaN
1717.986938	NaN
1771.673950	NaN
1825.361084	NaN
1879.048218	NaN
1932.735229	NaN
1986.422363	NaN
2040.109497	NaN
2093.796631	NaN
2147.483643	NaN
2201.170654	NaN
2254.857910	NaN
2308.544922	NaN
2362.231934	NaN
2415.919189	NaN
2469.606201	NaN
2523.293213	NaN
2576.980469	NaN
2630.667480	NaN
2684.354492	NaN
2738.041748	NaN
2791.728760	NaN
2845.415771	NaN
2899.103027	NaN
2952.790039	NaN
3006.477051	NaN
3060.164307	NaN
3113.851318	NaN
3167.538330	NaN
3221.225586	NaN
3274.912598	NaN
3328.599609	NaN
3382.286865	NaN
3435.973877	NaN
0.000000	NaN
0.000000	NaN
0.000000	NaN
0.000000	NaN
0.000000	NaN
0.000000	NaN
0.000000	NaN
0.000000	NaN
0.000000	NaN
0.000000	NaN
0.000000	NaN
0.000000	NaN
0.000000	NaN
0.000000	NaN
0.000000	NaN
0.000000	NaN
0.000000	NaN
0.000000	NaN
0.000000	NaN
0.000000	NaN
0.000000	NaN
0.000000	NaN
0.000000	NaN
0.000000	NaN
0.000000	NaN
0.000000	NaN
0.000000	NaN
0.000000	NaN
0.000000	NaN
0.000000	NaN
0.000000	NaN
0.000000	NaN

Count Rate History (KHz)  CR CHA / CR CHB
0.000000	107.908249	112.848282
0.104858	113.162994	114.107132
0.209715	114.030838	114.097595
0.314573	105.257034	105.037689
0.419430	108.976364	109.395981
0.524288	96.082687	100.088120
0.629146	101.814270	102.643967
0.734003	104.656219	105.009079
0.838861	116.119385	122.051239
0.943718	115.489960	117.769241
1.048576	114.288330	113.391876
1.153434	101.375580	107.355118
1.258291	123.615265	123.968124
1.363149	110.626221	109.329224
1.468006	90.579987	94.356537
1.572864	107.727051	112.915039
1.677722	108.489990	108.528137
1.782579	118.513107	119.018555
1.887437	108.375549	112.848282
1.992294	119.447708	119.981766
2.097152	110.988617	112.838745
2.202010	114.288330	116.329193
2.306867	109.167099	111.780167
2.411725	103.101730	106.458664
2.516582	100.164413	98.991394
2.621440	109.376907	110.435486
2.726298	99.372864	101.785660
2.831155	104.150772	104.951859
2.936013	112.075806	113.000870
3.040870	106.325150	104.589462
3.145728	94.347000	92.315674
3.250586	116.834641	123.243332
3.355443	106.248856	107.231140
3.460301	116.100311	118.560791
3.565158	96.712112	97.980499
3.670016	104.494095	104.560852
3.774874	103.158951	106.210709
3.879731	110.054016	108.461380
3.984589	99.000931	98.104477
4.089446	109.682083	113.630295
4.194304	109.567642	113.039017
4.299162	115.909576	118.131638
4.404019	105.342865	106.277466
4.508877	104.694366	104.274750
4.613734	101.985931	105.838776
4.718592	98.934174	100.526810
4.823450	114.593506	115.928650
4.928307	95.338821	95.853806
5.033165	110.483170	113.286972
5.138022	102.386475	107.049942
5.242880	108.957291	105.476379
5.347738	110.607147	110.244751
5.452595	117.111206	118.675232
5.557453	109.252930	111.865997
5.662310	95.529556	93.746185
5.767168	100.784302	102.624893
5.872026	99.363327	100.460052
5.976883	108.366013	114.965439
6.081741	105.085373	103.015900
6.186598	98.876953	104.227066
6.291456	106.458664	111.351013
6.396314	109.052658	105.571747
6.501171	117.530823	121.679306
6.606029	106.601715	110.893250
6.710886	105.590820	112.161636
6.815744	111.455917	108.203888
6.920602	100.011826	102.596283
7.025459	105.619431	106.821060
7.130317	96.025467	94.766617
7.235174	103.054047	107.507706
7.340032	110.635757	108.528137
7.444890	102.062225	101.795197
7.549747	109.214783	113.468170
7.654605	124.263763	124.502182
7.759462	110.988617	114.393234
7.864320	101.995468	102.310181
7.969178	101.766586	104.551315
8.074035	111.112595	111.942291
8.178893	106.325150	106.468201
8.283750	108.938217	108.680725
8.388608	108.098984	109.176636
8.493466	96.664429	96.845627
8.598323	106.687546	109.786987
8.703181	108.699799	110.473633
8.808038	94.480515	93.841553
8.912896	99.334717	100.717545
9.017754	100.288391	103.931427
9.122611	104.112625	106.983185
9.227469	100.708008	101.585388
9.332326	120.277405	123.329163
9.437184	105.400085	107.526779
9.542042	105.724335	107.364655
9.646899	107.641220	107.612610
9.751757	98.781586	99.496841
9.856614	108.375549	112.409592
9.961472	111.026764	110.006332
10.066330	106.878281	107.860565
10.171187	104.875565	108.575821
10.276045	110.845566	113.878250
10.380902	110.836029	115.509033
10.485760	105.400085	105.676651
10.590618	110.855103	113.964081
10.695475	112.867355	116.357803
10.800333	110.216141	109.691620
10.905190	104.017258	105.772018
11.010048	114.974976	117.073059
11.114906	106.029510	111.484528
11.219763	102.701187	110.616684
11.324621	115.261078	113.868713
11.429478	98.314285	95.672607
11.534336	112.094879	117.988586
11.639194	119.180679	117.511749
11.744051	117.835999	117.101669
11.848909	99.706650	102.834702
11.953766	99.449158	101.375580
12.058624	109.395981	108.556747
12.163482	112.991333	118.112564
12.268339	98.543167	96.893311
12.373197	101.785660	102.701187
12.478054	106.887817	111.188889
12.582912	121.364594	123.233795
12.687770	98.161697	97.942352
12.792627	97.217560	99.964142
12.897485	111.932755	114.974976
13.002342	121.402740	123.653412
13.107200	110.340118	110.635757
13.212058	94.385147	102.424622
13.316915	109.510422	112.800598
13.421773	115.547180	111.999512
13.526630	96.635818	98.056793
13.631488	107.917786	115.280151
13.736346	104.455948	100.908279
13.841203	110.759735	112.810135
13.946061	100.164413	99.601746
14.050918	108.289719	108.346939
14.155776	110.273361	116.090775
14.260634	110.254288	111.103058
14.365491	90.856552	89.883804
14.470349	121.107101	122.938156
14.575206	111.913681	115.766525
14.680064	98.142624	96.549988
14.784922	94.146729	97.894669
14.889779	119.256973	120.735168
14.994637	99.983215	99.563599
15.099494	109.663010	111.665726
15.204352	111.913681	111.408234
15.309210	101.222992	101.671219
15.414067	103.435516	102.434158
15.518925	95.844269	100.984573
15.623782	108.528137	109.176636
15.728640	112.466812	112.266541
15.833498	114.755630	117.950439
15.938355	108.985901	109.920502
16.043213	109.109879	109.939575
16.148070	95.615387	98.094940
16.252928	124.349594	123.500824
16.357786	112.705231	113.868713
16.462643	99.658966	100.698471
16.567501	98.133087	96.740723
16.672358	104.808807	111.742020
16.777216	109.586716	111.207962
16.882074	105.257034	103.883743
16.986931	114.860535	112.104416
17.091789	109.872818	113.086700
17.196646	106.983185	113.773346
17.301504	104.284286	104.837418
17.406362	112.199783	114.374161
17.511219	114.269257	116.539001
17.616077	109.663010	112.581253
17.720934	102.033615	104.312897
17.825792	112.810135	120.801926
17.930650	110.206604	109.605789
18.035507	102.300644	100.021362
18.140365	96.797943	102.958679
18.245222	111.703873	112.447739
18.350080	116.825104	115.518570
18.454938	111.017227	116.519928
18.559795	110.034943	113.258362
18.664653	97.846985	100.069046
18.769510	126.123428	127.677917
18.874368	105.972290	106.267929
18.979226	120.468140	123.996735
19.084083	106.439590	109.386444
19.188941	112.981796	116.739273
19.293798	112.009048	112.514496
19.398656	117.206573	120.620728
19.503514	108.261108	110.425949
19.608371	112.543106	115.356445
19.713229	108.394623	108.985901
