1/9/2026	11:05 AM
Pseudo Cross Correlation
Scattering angle:	80.0
Duration (s):	20
Wavelength (nm):	632.8
Refractive index:	1.330
Viscosity (mPas):	0.773
Temperature (K):	304.6
Laser intensity (mW):	8.548396
Average Count rate  A (kHz):	105.0
Average Count rate  B (kHz):	107.5
Intercept:	0.9311
Cumulant 1st	118.27
Cumulant 2nd	103.23	36.77
Cumulant 3rd	103.97	34.37

Lag time (s)         g2-1
1.250000E-8	0.923174
2.500000E-8	0.951994
3.750000E-8	0.943455
5.000000E-8	0.936695
6.250000E-8	0.941320
7.500000E-8	0.904671
8.750000E-8	0.924241
1.000000E-7	0.914990
1.125000E-7	0.933492
1.250000E-7	0.964448
1.375000E-7	0.938829
1.500000E-7	0.931713
1.625000E-7	0.955197
1.750000E-7	0.956620
1.875000E-7	1.000385
2.000000E-7	0.904315
2.125000E-7	0.902536
2.250000E-7	0.931001
2.375000E-7	0.929222
2.500000E-7	0.922462
2.625000E-7	0.920327
2.750000E-7	0.919260
2.875000E-7	0.879053
3.000000E-7	0.980104
3.125000E-7	0.933848
3.250000E-7	0.958755
3.375000E-7	0.969785
3.500000E-7	0.893997
3.625000E-7	0.946301
3.750000E-7	0.929222
3.875000E-7	0.956620
4.000000E-7	0.900757
4.125000E-7	0.935271
4.250000E-7	0.911076
4.375000E-7	0.909653
4.500000E-7	0.944167
4.625000E-7	0.975478
4.750000E-7	0.939897
4.875000E-7	0.913567
5.000000E-7	0.901469
5.125000E-7	0.896132
5.250000E-7	0.948436
5.375000E-7	0.905383
5.500000E-7	0.924597
5.625000E-7	0.937406
5.750000E-7	0.942032
5.875000E-7	0.979392
6.000000E-7	0.929578
6.125000E-7	0.908229
6.250000E-7	0.891506
6.375000E-7	0.976190
6.500000E-7	0.944522
6.625000E-7	0.953418
6.750000E-7	0.970853
6.875000E-7	0.950927
7.000000E-7	0.953774
7.125000E-7	0.961957
7.250000E-7	0.902181
7.375000E-7	0.942388
7.500000E-7	0.947369
7.625000E-7	0.938118
7.750000E-7	0.915346
7.875000E-7	0.975478
8.000000E-7	0.885813
8.250000E-7	0.930468
8.500000E-7	0.916591
8.750000E-7	0.942921
9.000000E-7	0.923707
9.250000E-7	0.955197
9.500000E-7	0.908407
9.750000E-7	0.937050
1.000000E-6	0.941498
1.025000E-6	0.932247
1.050000E-6	0.935093
1.075000E-6	0.923174
1.100000E-6	0.955730
1.125000E-6	0.895598
1.150000E-6	0.957154
1.175000E-6	0.907874
1.200000E-6	0.952884
1.225000E-6	0.929222
1.250000E-6	0.938474
1.275000E-6	0.924597
1.300000E-6	0.903604
1.325000E-6	0.904671
1.350000E-6	0.913745
1.375000E-6	0.936872
1.400000E-6	0.920505
1.425000E-6	0.923351
1.450000E-6	0.948258
1.475000E-6	0.899512
1.500000E-6	0.907340
1.525000E-6	0.942032
1.550000E-6	0.931001
1.575000E-6	0.931535
1.600000E-6	0.900579
1.650000E-6	0.931535
1.700000E-6	0.920416
1.750000E-6	0.913389
1.800000E-6	0.924597
1.850000E-6	0.951994
1.900000E-6	0.918192
1.950000E-6	0.926020
2.000000E-6	0.931090
2.050000E-6	0.917658
2.100000E-6	0.911521
2.150000E-6	0.937139
2.200000E-6	0.925219
2.250000E-6	0.938740
2.300000E-6	0.915790
2.350000E-6	0.923885
2.400000E-6	0.935449
2.450000E-6	0.937584
2.500000E-6	0.940342
2.550000E-6	0.936606
2.600000E-6	0.910008
2.650000E-6	0.913211
2.700000E-6	0.917925
2.750000E-6	0.922106
2.800000E-6	0.934382
2.850000E-6	0.931268
2.900000E-6	0.921128
2.950000E-6	0.922462
3.000000E-6	0.939452
3.050000E-6	0.922373
3.100000E-6	0.929044
3.150000E-6	0.922017
3.200000E-6	0.909742
3.300000E-6	0.924641
3.400000E-6	0.913478
3.500000E-6	0.911743
3.600000E-6	0.912499
3.700000E-6	0.933892
3.800000E-6	0.940475
3.900000E-6	0.926020
4.000000E-6	0.916724
4.100000E-6	0.910053
4.200000E-6	0.928511
4.300000E-6	0.931980
4.400000E-6	0.932202
4.500000E-6	0.934248
4.600000E-6	0.915924
4.700000E-6	0.928911
4.800000E-6	0.937851
4.900000E-6	0.941454
5.000000E-6	0.919571
5.100000E-6	0.940386
5.200000E-6	0.930334
5.300000E-6	0.927933
5.400000E-6	0.904182
5.500000E-6	0.915568
5.600000E-6	0.915924
5.700000E-6	0.924374
5.800000E-6	0.920594
5.900000E-6	0.934471
6.000000E-6	0.931357
6.100000E-6	0.924508
6.200000E-6	0.913166
6.300000E-6	0.915746
6.400000E-6	0.912143
6.600000E-6	0.915568
6.800000E-6	0.917725
7.000000E-6	0.916346
7.200000E-6	0.923663
7.400000E-6	0.917703
7.600000E-6	0.915279
7.800000E-6	0.914212
8.000000E-6	0.918570
8.200000E-6	0.910631
8.400000E-6	0.924530
8.600000E-6	0.910142
8.800000E-6	0.907718
9.000000E-6	0.915835
9.200000E-6	0.916635
9.400000E-6	0.924508
9.600000E-6	0.913389
9.800000E-6	0.921461
1.000000E-5	0.914367
1.020000E-5	0.915346
1.040000E-5	0.909986
1.060000E-5	0.904471
1.080000E-5	0.909008
1.100000E-5	0.910676
1.120000E-5	0.901647
1.140000E-5	0.900846
1.160000E-5	0.907718
1.180000E-5	0.920349
1.200000E-5	0.926131
1.220000E-5	0.909630
1.240000E-5	0.919704
1.260000E-5	0.904226
1.280000E-5	0.914011
1.320000E-5	0.908707
1.360000E-5	0.913856
1.400000E-5	0.901802
1.440000E-5	0.913555
1.480000E-5	0.900112
1.520000E-5	0.906361
1.560000E-5	0.909875
1.600000E-5	0.902003
1.640000E-5	0.905461
1.680000E-5	0.900668
1.720000E-5	0.905716
1.760000E-5	0.907596
1.800000E-5	0.890305
1.840000E-5	0.895498
1.880000E-5	0.907006
1.920000E-5	0.905083
1.960000E-5	0.906250
2.000000E-5	0.895876
2.040000E-5	0.903604
2.080000E-5	0.897989
2.120000E-5	0.904315
2.160000E-5	0.898700
2.200000E-5	0.901280
2.240000E-5	0.891595
2.280000E-5	0.905783
2.320000E-5	0.900624
2.360000E-5	0.886202
2.400000E-5	0.898967
2.440000E-5	0.890405
2.480000E-5	0.887892
2.520000E-5	0.891595
2.560000E-5	0.886903
2.640000E-5	0.892896
2.720000E-5	0.892663
2.800000E-5	0.887865
2.880000E-5	0.884557
2.960000E-5	0.882383
3.040000E-5	0.886597
3.120000E-5	0.885152
3.200000E-5	0.874388
3.280000E-5	0.880732
3.360000E-5	0.877340
3.440000E-5	0.885613
3.520000E-5	0.873426
3.600000E-5	0.875172
3.680000E-5	0.876990
3.760000E-5	0.873860
3.840000E-5	0.876517
3.920000E-5	0.877146
4.000000E-5	0.872676
4.080000E-5	0.872109
4.160000E-5	0.866010
4.240000E-5	0.866221
4.320000E-5	0.861885
4.400000E-5	0.863936
4.480000E-5	0.866544
4.560000E-5	0.866032
4.640000E-5	0.866660
4.720000E-5	0.865343
4.800000E-5	0.862635
4.880000E-5	0.864270
4.960000E-5	0.855324
5.040000E-5	0.858560
5.120000E-5	0.860245
5.280000E-5	0.849179
5.440000E-5	0.855457
5.600000E-5	0.854542
5.760000E-5	0.843783
5.920000E-5	0.848887
6.080000E-5	0.843966
6.240000E-5	0.840350
6.400000E-5	0.841067
6.560000E-5	0.840386
6.720000E-5	0.836819
6.880000E-5	0.837488
7.040000E-5	0.833679
7.200000E-5	0.834385
7.360000E-5	0.827878
7.520000E-5	0.825720
7.680000E-5	0.821575
7.840000E-5	0.817918
8.000000E-5	0.818930
8.160000E-5	0.817756
8.320000E-5	0.812590
8.480000E-5	0.810110
8.640000E-5	0.807433
8.800000E-5	0.808030
8.960000E-5	0.806109
9.120000E-5	0.805158
9.280000E-5	0.802817
9.440000E-5	0.800866
9.600000E-5	0.798294
9.760000E-5	0.797560
9.920000E-5	0.799348
0.000101	0.794924
0.000102	0.790086
0.000106	0.788360
0.000109	0.785335
0.000112	0.777957
0.000115	0.775061
0.000118	0.772744
0.000122	0.769844
0.000125	0.764367
0.000128	0.759190
0.000131	0.758626
0.000134	0.752828
0.000138	0.750362
0.000141	0.746710
0.000144	0.742573
0.000147	0.739485
0.000150	0.736222
0.000154	0.734649
0.000157	0.729478
0.000160	0.726214
0.000163	0.718553
0.000166	0.716951
0.000170	0.717155
0.000173	0.709209
0.000176	0.706790
0.000179	0.704267
0.000182	0.698603
0.000186	0.697152
0.000189	0.689355
0.000192	0.690492
0.000195	0.686295
0.000198	0.683108
0.000202	0.679257
0.000205	0.677824
0.000211	0.668303
0.000218	0.662433
0.000224	0.654662
0.000230	0.651331
0.000237	0.643022
0.000243	0.638047
0.000250	0.630436
0.000256	0.624613
0.000262	0.618409
0.000269	0.611400
0.000275	0.604899
0.000282	0.600422
0.000288	0.593683
0.000294	0.588790
0.000301	0.581617
0.000307	0.577409
0.000314	0.569688
0.000320	0.565223
0.000326	0.561924
0.000333	0.554707
0.000339	0.550120
0.000346	0.545322
0.000352	0.539098
0.000358	0.533485
0.000365	0.529911
0.000371	0.522997
0.000378	0.519988
0.000384	0.514396
0.000390	0.508479
0.000397	0.505486
0.000403	0.501123
0.000410	0.494111
0.000422	0.485657
0.000435	0.474839
0.000448	0.468085
0.000461	0.458987
0.000474	0.450485
0.000486	0.440975
0.000499	0.434423
0.000512	0.426727
0.000525	0.418605
0.000538	0.410598
0.000550	0.402230
0.000563	0.395966
0.000576	0.388730
0.000589	0.382131
0.000602	0.373836
0.000614	0.367452
0.000627	0.360796
0.000640	0.356157
0.000653	0.348582
0.000666	0.342053
0.000678	0.336049
0.000691	0.330851
0.000704	0.324176
0.000717	0.320074
0.000730	0.311809
0.000742	0.308659
0.000755	0.302597
0.000768	0.297430
0.000781	0.292044
0.000794	0.287249
0.000806	0.282789
0.000819	0.277412
0.000845	0.268476
0.000870	0.258965
0.000896	0.251118
0.000922	0.242350
0.000947	0.234447
0.000973	0.226982
0.000998	0.219661
0.001024	0.213211
0.001050	0.206448
0.001075	0.198614
0.001101	0.192168
0.001126	0.186250
0.001152	0.180931
0.001178	0.176005
0.001203	0.170166
0.001229	0.164404
0.001254	0.160355
0.001280	0.153873
0.001306	0.149753
0.001331	0.144312
0.001357	0.141150
0.001382	0.138079
0.001408	0.132387
0.001434	0.129116
0.001459	0.125917
0.001485	0.123464
0.001510	0.119073
0.001536	0.115082
0.001562	0.112830
0.001587	0.109221
0.001613	0.107814
0.001638	0.103950
0.001690	0.098005
0.001741	0.092504
0.001792	0.086664
0.001843	0.081328
0.001894	0.076782
0.001946	0.072024
0.001997	0.067594
0.002048	0.063962
0.002099	0.060403
0.002150	0.057823
0.002202	0.053961
0.002253	0.050151
0.002304	0.047733
0.002355	0.045585
0.002406	0.042630
0.002458	0.042080
0.002509	0.039556
0.002560	0.037732
0.002611	0.036109
0.002662	0.034747
0.002714	0.033804
0.002765	0.032801
0.002816	0.031112
0.002867	0.030323
0.002918	0.029143
0.002970	0.028196
0.003021	0.027348
0.003072	0.027361
0.003123	0.026765
0.003174	0.025985
0.003226	0.025426
0.003277	0.025126
0.003379	0.024795
0.003482	0.023823
0.003584	0.022386
0.003686	0.020786
0.003789	0.019415
0.003891	0.017542
0.003994	0.015017
0.004096	0.013018
0.004198	0.011608
0.004301	0.009373
0.004403	0.008198
0.004506	0.008537
0.004608	0.007915
0.004710	0.009090
0.004813	0.009353
0.004915	0.011584
0.005018	0.013286
0.005120	0.015522
0.005222	0.016843
0.005325	0.017676
0.005427	0.018713
0.005530	0.019162
0.005632	0.018659
0.005734	0.017042
0.005837	0.016926
0.005939	0.017291
0.006042	0.017983
0.006144	0.018309
0.006246	0.018028
0.006349	0.018792
0.006451	0.019202
0.006554	0.019227
0.006758	0.019533
0.006963	0.020047
0.007168	0.020275
0.007373	0.020062
0.007578	0.019747
0.007782	0.018218
0.007987	0.017913
0.008192	0.019955
0.008397	0.022489
0.008602	0.025344
0.008806	0.026590
0.009011	0.027110
0.009216	0.026308
0.009421	0.025658
0.009626	0.025078
0.009830	0.026116
0.010035	0.026133
0.010240	0.027035
0.010445	0.025873
0.010650	0.023544
0.010854	0.021430
0.011059	0.020857
0.011264	0.021828
0.011469	0.022932
0.011674	0.021459
0.011878	0.018631
0.012083	0.018468
0.012288	0.017389
0.012493	0.013946
0.012698	0.012247
0.012902	0.012173
0.013107	0.013408
0.013517	0.013509
0.013926	0.013860
0.014336	0.015593
0.014746	0.016370
0.015155	0.016757
0.015565	0.017577
0.015974	0.017927
0.016384	0.017997
0.016794	0.017868
0.017203	0.017881
0.017613	0.014480
0.018022	0.011063
0.018432	0.011311
0.018842	0.012591
0.019251	0.012767
0.019661	0.015444
0.020070	0.015028
0.020480	0.013666
0.020890	0.016628
0.021299	0.018764
0.021709	0.023230
0.022118	0.024705
0.022528	0.020421
0.022938	0.016580
0.023347	0.012740
0.023757	0.012840
0.024166	0.014395
0.024576	0.014067
0.024986	0.014087
0.025395	0.013913
0.025805	0.013240
0.026214	0.011880
0.027034	0.016552
0.027853	0.021947
0.028672	0.025586
0.029491	0.027504
0.030310	0.027832
0.031130	0.024552
0.031949	0.020706
0.032768	0.013373
0.033587	0.009059
0.034406	0.005705
0.035226	0.008501
0.036045	0.012358
0.036864	0.015863
0.037683	0.014839
0.038502	0.010149
0.039322	0.011337
0.040141	0.012783
0.040960	0.014434
0.041779	0.017589
0.042598	0.019690
0.043418	0.022936
0.044237	0.022350
0.045056	0.022742
0.045875	0.013847
0.046694	0.009635
0.047514	0.010436
0.048333	0.010861
0.049152	0.009948
0.049971	0.011128
0.050790	0.019845
0.051610	0.021727
0.052429	0.017031
0.054067	0.014027
0.055706	0.013870
0.057344	0.020777
0.058982	0.016756
0.060621	0.015670
0.062259	0.018595
0.063898	0.014490
0.065536	0.008772
0.067174	0.016430
0.068813	0.018861
0.070451	0.014127
0.072090	0.012737
0.073728	0.015348
0.075366	0.015547
0.077005	0.012230
0.078643	0.018663
0.080282	0.018937
0.081920	0.017479
0.083558	0.010916
0.085197	0.005234
0.086835	0.008029
0.088474	0.019187
0.090112	0.024459
0.091750	0.023722
0.093389	0.021845
0.095027	0.009846
0.096666	0.007819
0.098304	0.013140
0.099942	0.018091
0.101581	0.017742
0.103219	0.010856
0.104858	0.005086
0.108134	0.012020
0.111411	0.015950
0.114688	0.017255
0.117965	0.014112
0.121242	0.016487
0.124518	0.015329
0.127795	0.008418
0.131072	0.010699
0.134349	0.011074
0.137626	0.006296
0.140902	0.010391
0.144179	0.010054
0.147456	0.010314
0.150733	0.002883
0.154010	0.008327
0.157286	0.007851
0.160563	0.008487
0.163840	0.004092
0.167117	0.010500
0.170394	0.009120
0.173670	0.008128
0.176947	0.006560
0.180224	0.003405
0.183501	-0.001554
0.186778	0.001921
0.190054	0.008407
0.193331	0.008389
0.196608	0.004922
0.199885	0.003116
0.203162	0.007902
0.206438	0.010996
0.209715	0.002897
0.216269	0.006507
0.222822	0.008347
0.229376	0.003695
0.235930	0.001737
0.242483	0.002557
0.249037	0.001437
0.255590	0.001600
0.262144	0.002122
0.268698	0.002911
0.275251	0.000468
0.281805	0.004281
0.288358	0.003982
0.294912	-2.612568E-5
0.301466	0.000180
0.308019	0.004237
0.314573	0.002670
0.321126	-0.000213
0.327680	-0.001741
0.334234	0.001284
0.340787	0.000753
0.347341	0.000481
0.353894	-0.001815
0.360448	-0.004793
0.367002	-0.003714
0.373555	-0.003221
0.380109	-0.002922
0.386662	-0.002411
0.393216	-0.000578
0.399770	-0.000753
0.406323	-0.000342
0.412877	-7.533114E-5
0.419430	0.000589
0.432538	-0.004034
0.445645	-0.001740
0.458752	-0.008281
0.471859	-0.000169
0.484966	-0.003710
0.498074	-0.004737
0.511181	-0.003873
0.524288	-0.002376
0.537395	-0.003175
0.550502	-0.005425
0.563610	-0.004873
0.576717	-0.000255
0.589824	-0.001140
0.602931	-0.006608
0.616038	-0.002559
0.629146	0.001351
0.642253	-0.002048
0.655360	-0.004363
0.668467	0.000270
0.681574	-0.001382
0.694682	0.000647
0.707789	0.002790
0.720896	-0.002848
0.734003	0.000563
0.747110	-0.000183
0.760218	0.000461
0.773325	-0.003765
0.786432	0.000351
0.799539	0.002860
0.812646	-0.005146
0.825754	-0.001106
0.838861	-0.001855
0.865075	-0.001183
0.891290	-0.002161
0.917504	-0.002252
0.943718	-0.003943
0.969933	-0.002030
0.996147	-0.007156
1.022362	-0.002649
1.048576	-0.001526
1.074790	-0.000620
1.101005	0.001225
1.127219	-0.002199
1.153434	-0.003694
1.179648	-0.000618
1.205862	-0.003060
1.232077	-0.000747
1.258291	-0.002738
1.284506	0.000770
1.310720	0.001013
1.336934	0.000122
1.363149	-0.004098
1.389363	0.000462
1.415578	-0.002122
1.441792	0.000726
1.468006	-0.003239
1.494221	-0.002342
1.520435	-0.000375
1.546650	-0.002617
1.572864	-0.001973
1.599078	-0.002974
1.625293	-0.003449
1.651507	-0.000514
1.677722	-0.002618
1.730150	-0.003170
1.782579	-0.001888
1.835008	-0.000137
1.887437	-0.000627
1.939866	0.001425
1.992294	-0.001548
2.044723	-0.000409
2.097152	-3.694816E-5
2.149581	0.000703
2.202010	-9.624041E-5
2.254438	-0.002295
2.306867	-0.003609
2.359296	-0.000611
2.411725	-0.001845
2.464154	-0.000961
2.516582	0.001207
2.569011	0.000202
2.621440	0.001295
2.673869	0.002750
2.726298	-0.000776
2.778726	0.001154
2.831155	-0.000716
2.883584	0.000478
2.936013	0.002441
2.988442	0.001991
3.040870	0.003440
3.093299	0.001397
3.145728	-0.001181
3.198157	-0.002257
3.250586	-0.002566
3.303015	-0.005132
3.355443	-0.001818
3.460301	-0.000313
3.565158	0.000668
3.670016	0.002163
3.774873	0.003848
3.879731	0.000221
3.984589	-0.002047
4.089447	0.001395
4.194304	0.003918
4.299161	0.004904
4.404019	0.001826
4.508877	-0.002492
4.613734	-0.001850
4.718592	-0.000865
4.823450	-0.000444
4.928307	0.000101
5.033165	-0.000173
5.138022	-0.002030
5.242880	-0.002454
5.347738	-0.004140
5.452595	-0.001435
5.557453	-0.002161
5.662311	-0.001527
5.767168	-0.000521
5.872025	-0.001193
5.976883	0.000655
6.081741	0.003312
6.186598	0.003334
6.291456	0.001785
6.396314	-0.000249
6.501171	-0.002401
6.606029	-0.001691
6.710886	-0.000355
6.920601	0.000703
7.130317	-0.003157
7.340032	-0.003528
7.549747	-0.000996
7.759462	0.004140
7.969178	0.004383
8.178893	-0.001620
8.388608	-0.001313
8.598323	0.003852
8.808039	0.003791
9.017754	0.003318
9.227468	0.000245
9.437184	-0.005665
9.646899	-0.003311
9.856614	0.002636
10.066330	-0.000677
10.276045	-0.000854
10.485760	0.002013
10.695476	-1.409077E-5
10.905190	-0.001661
11.114905	0.000168
11.324621	-0.000847
11.534336	-0.000386
11.744051	0.000556
11.953767	-0.000562
12.163482	0.001129
12.373197	0.001027
12.582912	-0.000162
12.792627	0.001549
13.002342	0.002088
13.212058	-0.001549
13.421773	-0.001631
13.841203	0.000371
14.260633	-0.001819
14.680064	0.001697
15.099494	-0.000959
15.518925	-0.001200
15.938355	-0.000236
16.357786	-0.001009
16.777216	0.001481
17.196646	-0.000170
17.616077	0.002637
18.035507	-0.002208
18.454937	0.000157
18.874369	0.000808
19.293798	0.000000
19.713228	NaN
20.132660	NaN
20.552090	NaN
20.971519	NaN
21.390951	NaN
21.810381	NaN
22.229811	NaN
22.649242	NaN
23.068672	NaN
23.488102	NaN
23.907534	NaN
24.326963	NaN
24.746393	NaN
25.165825	NaN
25.585255	NaN
26.004684	NaN
26.424116	NaN
26.843546	NaN
27.682405	NaN
28.521267	NaN
29.360128	NaN
30.198988	NaN
31.037849	NaN
31.876711	NaN
32.715572	NaN
33.554432	NaN
34.393291	NaN
35.232155	NaN
36.071014	NaN
36.909874	NaN
37.748737	NaN
38.587597	NaN
39.426456	NaN
40.265320	NaN
41.104179	NaN
41.943039	NaN
42.781902	NaN
43.620762	NaN
44.459621	NaN
45.298485	NaN
46.137344	NaN
46.976204	NaN
47.815067	NaN
48.653927	NaN
49.492786	NaN
50.331650	NaN
51.170509	NaN
52.009369	NaN
52.848232	NaN
53.687092	NaN
55.364811	NaN
57.042534	NaN
58.720257	NaN
60.397976	NaN
62.075699	NaN
63.753422	NaN
65.431145	NaN
67.108864	NaN
68.786583	NaN
70.464310	NaN
72.142029	NaN
73.819748	NaN
75.497475	NaN
77.175194	NaN
78.852913	NaN
80.530640	NaN
82.208359	NaN
83.886078	NaN
85.563805	NaN
87.241524	NaN
88.919243	NaN
90.596970	NaN
92.274689	NaN
93.952408	NaN
95.630135	NaN
97.307854	NaN
98.985573	NaN
100.663300	NaN
102.341019	NaN
104.018738	NaN
105.696465	NaN
107.374184	NaN
110.729622	NaN
114.085068	NaN
117.440514	NaN
120.795952	NaN
124.151398	NaN
127.506844	NaN
130.862289	NaN
134.217728	NaN
137.573166	NaN
140.928619	NaN
144.284058	NaN
147.639496	NaN
150.994949	NaN
154.350388	NaN
157.705826	NaN
161.061279	NaN
164.416718	NaN
167.772156	NaN
171.127609	NaN
174.483047	NaN
177.838486	NaN
181.193939	NaN
184.549377	NaN
187.904816	NaN
191.260269	NaN
194.615707	NaN
197.971146	NaN
201.326599	NaN
204.682037	NaN
208.037476	NaN
211.392929	NaN
214.748367	NaN
221.459244	NaN
228.170135	NaN
234.881027	NaN
241.591904	NaN
248.302795	NaN
255.013687	NaN
261.724579	NaN
268.435455	NaN
275.146332	NaN
281.857239	NaN
288.568115	NaN
295.278992	NaN
301.989899	NaN
308.700775	NaN
315.411652	NaN
322.122559	NaN
328.833435	NaN
335.544312	NaN
342.255219	NaN
348.966095	NaN
355.676971	NaN
362.387878	NaN
369.098755	NaN
375.809631	NaN
382.520538	NaN
389.231415	NaN
395.942291	NaN
402.653198	NaN
409.364075	NaN
416.074951	NaN
422.785858	NaN
429.496735	NaN
442.918488	NaN
456.340271	NaN
469.762054	NaN
483.183807	NaN
496.605591	NaN
510.027374	NaN
523.449158	NaN
536.870911	NaN
550.292664	NaN
563.714478	NaN
577.136230	NaN
590.557983	NaN
603.979797	NaN
617.401550	NaN
630.823303	NaN
644.245117	NaN
657.666870	NaN
671.088623	NaN
684.510437	NaN
697.932190	NaN
711.353943	NaN
724.775757	NaN
738.197510	NaN
751.619263	NaN
765.041077	NaN
778.462830	NaN
791.884583	NaN
805.306396	NaN
818.728149	NaN
832.149902	NaN
845.571716	NaN
858.993469	NaN
885.836975	NaN
912.680542	NaN
939.524109	NaN
966.367615	NaN
993.211182	NaN
1020.054749	NaN
1046.898315	NaN
1073.741821	NaN
1100.585327	NaN
1127.428955	NaN
1154.272461	NaN
1181.115967	NaN
1207.959595	NaN
1234.803101	NaN
1261.646606	NaN
1288.490234	NaN
1315.333740	NaN
1342.177246	NaN
1369.020874	NaN
1395.864380	NaN
1422.707886	NaN
1449.551514	NaN
1476.395020	NaN
1503.238525	NaN
1530.082153	NaN
1556.925659	NaN
1583.769165	NaN
1610.612793	NaN
1637.456299	NaN
1664.299805	NaN
1691.143433	NaN
1717.986938	NaN
1771.673950	NaN
1825.361084	NaN
1879.048218	NaN
1932.735229	NaN
1986.422363	NaN
2040.109497	NaN
2093.796631	NaN
2147.483643	NaN
2201.170654	NaN
2254.857910	NaN
2308.544922	NaN
2362.231934	NaN
2415.919189	NaN
2469.606201	NaN
2523.293213	NaN
2576.980469	NaN
2630.667480	NaN
2684.354492	NaN
2738.041748	NaN
2791.728760	NaN
2845.415771	NaN
2899.103027	NaN
2952.790039	NaN
3006.477051	NaN
3060.164307	NaN
3113.851318	NaN
3167.538330	NaN
3221.225586	NaN
3274.912598	NaN
3328.599609	NaN
3382.286865	NaN
3435.973877	NaN
0.000000	NaN
0.000000	NaN
0.000000	NaN
0.000000	NaN
0.000000	NaN
0.000000	NaN
0.000000	NaN
0.000000	NaN
0.000000	NaN
0.000000	NaN
0.000000	NaN
0.000000	NaN
0.000000	NaN
0.000000	NaN
0.000000	NaN
0.000000	NaN
0.000000	NaN
0.000000	NaN
0.000000	NaN
0.000000	NaN
0.000000	NaN
0.000000	NaN
0.000000	NaN
0.000000	NaN
0.000000	NaN
0.000000	NaN
0.000000	NaN
0.000000	NaN
0.000000	NaN
0.000000	NaN
0.000000	NaN
0.000000	NaN

Count Rate History (KHz)  CR CHA / CR CHB
0.000000	90.570450	92.544556
0.104858	98.056793	106.172562
0.209715	102.186203	105.857849
0.314573	120.401382	125.360489
0.419430	114.002228	111.570358
0.524288	107.879639	113.439560
0.629146	108.423233	115.079880
0.734003	96.740723	99.391937
0.838861	115.537643	123.405457
0.943718	112.352371	111.083984
1.048576	95.348358	101.270676
1.153434	117.292404	117.168427
1.258291	90.312958	91.772079
1.363149	92.077255	95.100403
1.468006	104.894638	108.070374
1.572864	100.049973	100.669861
1.677722	113.725662	120.601654
1.782579	105.104446	101.432800
1.887437	83.198547	86.793900
1.992294	104.684830	113.229752
2.097152	90.599060	89.445114
2.202010	111.284256	114.402771
2.306867	96.502304	98.762512
2.411725	86.259842	94.251633
2.516582	104.761124	102.109909
2.621440	98.924637	100.212097
2.726298	117.731094	121.002197
2.831155	111.017227	110.874176
2.936013	102.224350	105.524063
3.040870	86.364746	88.071823
3.145728	99.639893	100.755692
3.250586	93.793869	95.262527
3.355443	111.761093	113.897324
3.460301	102.882385	107.746124
3.565158	114.164352	118.379593
3.670016	104.942322	102.701187
3.774874	94.976425	95.319748
3.879731	108.680725	110.273361
3.984589	89.521408	94.184875
4.089446	113.916397	115.118027
4.194304	96.778870	97.608566
4.299162	95.052719	99.058151
4.404019	102.119446	105.571747
4.508877	87.394714	87.614059
4.613734	105.724335	109.119415
4.718592	115.423203	117.368698
4.823450	95.529556	97.494125
4.928307	110.025406	110.931396
5.033165	81.338882	88.119507
5.138022	112.123489	109.405518
5.242880	118.579865	120.439529
5.347738	107.030869	110.569000
5.452595	120.954514	124.521255
5.557453	108.661652	107.641220
5.662310	93.917847	96.521378
5.767168	112.714767	116.767883
5.872026	94.642639	95.939636
5.976883	106.163025	109.434128
6.081741	91.314316	92.592239
6.186598	101.966858	102.005005
6.291456	78.716278	81.100464
6.396314	112.304687	113.153458
6.501171	102.281570	103.797913
6.606029	104.093552	109.968185
6.710886	89.817047	89.845657
6.815744	114.183426	120.916367
6.920602	111.198425	109.758377
7.025459	115.127563	116.958618
7.130317	108.022690	111.513138
7.235174	102.415085	105.056763
7.340032	101.203918	102.710724
7.444890	103.340149	104.026794
7.549747	79.145432	82.769394
7.654605	92.058182	99.735260
7.759462	107.097626	102.930069
7.864320	93.069077	93.412399
7.969178	86.040497	86.412430
8.074035	104.026794	108.547211
8.178893	91.962814	91.495514
8.283750	99.945068	100.870132
8.388608	88.996887	88.081360
8.493466	88.148117	91.485977
8.598323	102.338791	103.416443
8.703181	91.981888	94.127655
8.808038	108.928680	117.750168
8.912896	97.141266	95.663071
9.017754	91.629028	96.254349
9.122611	92.554092	93.469620
9.227469	98.552704	98.886490
9.332326	115.261078	124.807358
9.437184	160.093307	168.695450
9.542042	229.463577	241.155624
9.646899	213.146210	224.294662
9.751757	117.254257	119.447708
9.856614	106.801987	109.643936
9.961472	98.018646	99.782944
10.066330	102.596283	104.999542
10.171187	89.435577	92.906952
10.276045	109.663010	113.239288
10.380902	97.303391	99.496841
10.485760	91.457367	87.547302
10.590618	86.145401	93.507767
10.695475	108.165741	111.360550
10.800333	102.500916	108.222961
10.905190	99.878311	101.633072
11.010048	115.089417	117.616653
11.114906	88.996887	90.627670
11.219763	110.664368	116.691589
11.324621	93.259811	94.709396
11.429478	103.511810	104.074478
11.534336	112.218857	116.691589
11.639194	122.184753	124.597549
11.744051	100.564957	102.796555
11.848909	85.744858	90.360641
11.953766	95.405579	97.198486
12.058624	103.397369	103.273392
12.163482	96.778870	108.289719
12.268339	104.856491	102.024078
12.373197	105.905533	108.089447
12.478054	106.401443	110.044479
12.582912	130.186081	135.612488
12.687770	115.070343	116.529465
12.792627	86.116791	81.443787
12.897485	105.457306	110.759735
13.002342	117.883682	118.646622
13.107200	104.351044	105.218887
13.212058	115.842819	117.292404
13.316915	136.861801	141.544342
13.421773	109.424591	109.796524
13.526630	93.317032	90.875626
13.631488	97.827911	97.303391
13.736346	105.609894	108.680725
13.841203	125.017166	125.570297
13.946061	103.034973	104.227066
14.050918	103.893280	102.796555
14.155776	92.039108	93.746185
14.260634	104.408264	104.846954
14.365491	93.812943	96.387863
14.470349	100.183487	104.551315
14.575206	105.981827	108.070374
14.680064	105.113983	108.804703
14.784922	97.417831	101.890564
14.889779	98.695755	94.900131
14.994637	96.530914	98.543167
15.099494	86.154938	100.154877
15.204352	110.445023	102.081299
15.309210	109.958649	110.101700
15.414067	97.093582	102.148056
15.518925	102.615356	101.127625
15.623782	92.153549	93.755722
15.728640	110.502243	115.718842
15.833498	125.923157	125.017166
15.938355	109.920502	112.743378
16.043213	107.192993	110.368729
16.148070	91.848373	96.273422
16.252928	106.134415	105.171204
16.357786	99.010468	103.912354
16.462643	113.801956	115.852356
16.567501	95.958710	100.660324
16.672358	101.518631	99.592209
16.777216	103.788376	107.049942
16.882074	98.009109	101.032257
16.986931	98.638535	103.406906
17.091789	96.378326	97.808838
17.196646	103.540421	107.183456
17.301504	140.237808	144.052505
17.406362	140.352249	144.529343
17.511219	94.490051	97.208023
17.616077	145.778656	152.263641
17.720934	97.675323	97.227097
17.825792	91.257095	91.962814
17.930650	101.795197	107.412338
18.035507	116.939545	119.104385
18.140365	109.062195	106.754303
18.245222	100.803375	101.490021
18.350080	131.931305	138.387680
18.454938	125.284195	128.126144
18.559795	114.822388	119.037628
18.664653	101.957321	103.597641
18.769510	110.921860	120.906830
18.874368	94.394684	89.788437
18.979226	87.070465	88.863373
19.084083	87.881088	92.658997
19.188941	102.882385	111.179352
19.293798	112.981796	107.231140
19.398656	113.048553	122.432709
19.503514	110.635757	117.101669
19.608371	120.773315	113.449097
19.713229	95.415115	96.426010
19.818086	99.039078	100.831985
