1/9/2026	10:51 AM
Pseudo Cross Correlation
Scattering angle:	130.0
Duration (s):	20
Wavelength (nm):	632.8
Refractive index:	1.330
Viscosity (mPas):	0.773
Temperature (K):	304.6
Laser intensity (mW):	8.506901
Average Count rate  A (kHz):	84.7
Average Count rate  B (kHz):	85.2
Intercept:	0.8398
Cumulant 1st	103.50
Cumulant 2nd	106.38	19.99
Cumulant 3rd	100.85	36.78

Lag time (s)         g2-1
1.250000E-8	0.814688
2.500000E-8	0.890180
3.750000E-8	0.854722
5.000000E-8	0.842711
6.250000E-8	0.913057
7.500000E-8	0.820407
8.750000E-8	0.831273
1.000000E-7	0.852434
1.125000E-7	0.874167
1.250000E-7	0.917060
1.375000E-7	0.893040
1.500000E-7	0.823838
1.625000E-7	0.853578
1.750000E-7	0.847287
1.875000E-7	0.850146
2.000000E-7	0.788951
2.125000E-7	0.908482
2.250000E-7	0.818119
2.375000E-7	0.801534
2.500000E-7	0.867304
2.625000E-7	0.820979
2.750000E-7	0.915917
2.875000E-7	0.827842
3.000000E-7	0.810684
3.125000E-7	0.852434
3.250000E-7	0.873023
3.375000E-7	0.842139
3.500000E-7	0.832417
3.625000E-7	0.814116
3.750000E-7	0.862157
3.875000E-7	0.834705
4.000000E-7	0.799246
4.125000E-7	0.807825
4.250000E-7	0.863872
4.375000E-7	0.869591
4.500000E-7	0.815259
4.625000E-7	0.878742
4.750000E-7	0.826698
4.875000E-7	0.849574
5.000000E-7	0.898187
5.125000E-7	0.833561
5.250000E-7	0.897615
5.375000E-7	0.822694
5.500000E-7	0.811256
5.625000E-7	0.772366
5.750000E-7	0.832989
5.875000E-7	0.855294
6.000000E-7	0.823838
6.125000E-7	0.889037
6.250000E-7	0.888465
6.375000E-7	0.850146
6.500000E-7	0.835276
6.625000E-7	0.904478
6.750000E-7	0.840996
6.875000E-7	0.859297
7.000000E-7	0.818119
7.125000E-7	0.828414
7.250000E-7	0.843283
7.375000E-7	0.852434
7.500000E-7	0.816975
7.625000E-7	0.836420
7.750000E-7	0.830701
7.875000E-7	0.866732
8.000000E-7	0.843855
8.250000E-7	0.822122
8.500000E-7	0.854436
8.750000E-7	0.838994
9.000000E-7	0.818405
9.250000E-7	0.835562
9.500000E-7	0.850432
9.750000E-7	0.857009
1.000000E-6	0.808396
1.025000E-6	0.866160
1.050000E-6	0.835562
1.075000E-6	0.862157
1.100000E-6	0.806967
1.125000E-6	0.819835
1.150000E-6	0.817547
1.175000E-6	0.820979
1.200000E-6	0.881602
1.225000E-6	0.825840
1.250000E-6	0.850718
1.275000E-6	0.835848
1.300000E-6	0.840710
1.325000E-6	0.853864
1.350000E-6	0.824410
1.375000E-6	0.831845
1.400000E-6	0.833847
1.425000E-6	0.842139
1.450000E-6	0.820693
1.475000E-6	0.775511
1.500000E-6	0.856437
1.525000E-6	0.793527
1.550000E-6	0.843855
1.575000E-6	0.834705
1.600000E-6	0.880458
1.650000E-6	0.827270
1.700000E-6	0.875597
1.750000E-6	0.824124
1.800000E-6	0.829128
1.850000E-6	0.846715
1.900000E-6	0.818977
1.950000E-6	0.831702
2.000000E-6	0.822837
2.050000E-6	0.821551
2.100000E-6	0.854007
2.150000E-6	0.846143
2.200000E-6	0.846715
2.250000E-6	0.835562
2.300000E-6	0.831559
2.350000E-6	0.833132
2.400000E-6	0.835848
2.450000E-6	0.864301
2.500000E-6	0.825125
2.550000E-6	0.843998
2.600000E-6	0.810684
2.650000E-6	0.835848
2.700000E-6	0.829843
2.750000E-6	0.827985
2.800000E-6	0.818548
2.850000E-6	0.830272
2.900000E-6	0.805537
2.950000E-6	0.848288
3.000000E-6	0.839423
3.050000E-6	0.822980
3.100000E-6	0.845142
3.150000E-6	0.832417
3.200000E-6	0.824839
3.300000E-6	0.819334
3.400000E-6	0.832703
3.500000E-6	0.834419
3.600000E-6	0.829843
3.700000E-6	0.828271
3.800000E-6	0.822623
3.900000E-6	0.824696
4.000000E-6	0.827413
4.100000E-6	0.843641
4.200000E-6	0.815760
4.300000E-6	0.820407
4.400000E-6	0.818048
4.500000E-6	0.835205
4.600000E-6	0.810541
4.700000E-6	0.831202
4.800000E-6	0.829772
4.900000E-6	0.816832
5.000000E-6	0.841711
5.100000E-6	0.828199
5.200000E-6	0.825911
5.300000E-6	0.824982
5.400000E-6	0.815331
5.500000E-6	0.820478
5.600000E-6	0.831345
5.700000E-6	0.830272
5.800000E-6	0.820550
5.900000E-6	0.811471
6.000000E-6	0.830916
6.100000E-6	0.819120
6.200000E-6	0.806037
6.300000E-6	0.811685
6.400000E-6	0.820192
6.600000E-6	0.820907
6.800000E-6	0.813722
7.000000E-6	0.827842
7.200000E-6	0.824553
7.400000E-6	0.806502
7.600000E-6	0.826233
7.800000E-6	0.830272
8.000000E-6	0.824339
8.200000E-6	0.823338
8.400000E-6	0.830808
8.600000E-6	0.821765
8.800000E-6	0.827520
9.000000E-6	0.819906
9.200000E-6	0.823195
9.400000E-6	0.817762
9.600000E-6	0.801712
9.800000E-6	0.821336
1.000000E-5	0.812114
1.020000E-5	0.802534
1.040000E-5	0.804536
1.060000E-5	0.810863
1.080000E-5	0.812614
1.100000E-5	0.811220
1.120000E-5	0.815009
1.140000E-5	0.809755
1.160000E-5	0.801069
1.180000E-5	0.805394
1.200000E-5	0.811828
1.220000E-5	0.804893
1.240000E-5	0.803213
1.260000E-5	0.811828
1.280000E-5	0.801391
1.320000E-5	0.811882
1.360000E-5	0.807914
1.400000E-5	0.811149
1.440000E-5	0.810952
1.480000E-5	0.799639
1.520000E-5	0.808164
1.560000E-5	0.796351
1.600000E-5	0.800658
1.640000E-5	0.797762
1.680000E-5	0.802838
1.720000E-5	0.799299
1.760000E-5	0.802391
1.800000E-5	0.788272
1.840000E-5	0.795421
1.880000E-5	0.791882
1.920000E-5	0.786503
1.960000E-5	0.783893
2.000000E-5	0.787343
2.040000E-5	0.781785
2.080000E-5	0.782124
2.120000E-5	0.776405
2.160000E-5	0.786020
2.200000E-5	0.783947
2.240000E-5	0.775547
2.280000E-5	0.776512
2.320000E-5	0.786181
2.360000E-5	0.780319
2.400000E-5	0.768702
2.440000E-5	0.779425
2.480000E-5	0.772419
2.520000E-5	0.776048
2.560000E-5	0.771740
2.640000E-5	0.765807
2.720000E-5	0.776432
2.800000E-5	0.764010
2.880000E-5	0.768684
2.960000E-5	0.754520
3.040000E-5	0.755467
3.120000E-5	0.755467
3.200000E-5	0.760642
3.280000E-5	0.757496
3.360000E-5	0.759078
3.440000E-5	0.747273
3.520000E-5	0.753913
3.600000E-5	0.752242
3.680000E-5	0.746925
3.760000E-5	0.738739
3.840000E-5	0.739043
3.920000E-5	0.736710
4.000000E-5	0.733967
4.080000E-5	0.737238
4.160000E-5	0.739222
4.240000E-5	0.730956
4.320000E-5	0.733520
4.400000E-5	0.722931
4.480000E-5	0.721403
4.560000E-5	0.728713
4.640000E-5	0.728024
4.720000E-5	0.724209
4.800000E-5	0.717676
4.880000E-5	0.717024
4.960000E-5	0.715853
5.040000E-5	0.724825
5.120000E-5	0.712654
5.280000E-5	0.708533
5.440000E-5	0.702956
5.600000E-5	0.701830
5.760000E-5	0.694014
5.920000E-5	0.696579
6.080000E-5	0.692173
6.240000E-5	0.687718
6.400000E-5	0.688582
6.560000E-5	0.682647
6.720000E-5	0.677437
6.880000E-5	0.672446
7.040000E-5	0.671637
7.200000E-5	0.669961
7.360000E-5	0.666994
7.520000E-5	0.662003
7.680000E-5	0.654050
7.840000E-5	0.651564
8.000000E-5	0.649000
8.160000E-5	0.649510
8.320000E-5	0.644403
8.480000E-5	0.636753
8.640000E-5	0.635707
8.800000E-5	0.633938
8.960000E-5	0.628853
9.120000E-5	0.626731
9.280000E-5	0.620914
9.440000E-5	0.619725
9.600000E-5	0.622943
9.760000E-5	0.616526
9.920000E-5	0.615918
0.000101	0.611812
0.000102	0.610226
0.000106	0.599955
0.000109	0.593531
0.000112	0.587297
0.000115	0.582391
0.000118	0.574527
0.000122	0.576111
0.000125	0.565166
0.000128	0.557391
0.000131	0.552950
0.000134	0.546809
0.000138	0.543585
0.000141	0.537040
0.000144	0.532782
0.000147	0.523963
0.000150	0.523228
0.000154	0.515977
0.000157	0.511452
0.000160	0.503319
0.000163	0.501908
0.000166	0.495430
0.000170	0.487501
0.000173	0.485838
0.000176	0.485178
0.000179	0.475610
0.000182	0.472797
0.000186	0.465413
0.000189	0.466990
0.000192	0.458061
0.000195	0.454957
0.000198	0.447736
0.000202	0.444597
0.000205	0.439107
0.000211	0.427784
0.000218	0.421187
0.000224	0.415213
0.000230	0.407835
0.000237	0.399071
0.000243	0.390079
0.000250	0.383302
0.000256	0.372780
0.000262	0.367198
0.000269	0.361178
0.000275	0.352366
0.000282	0.346996
0.000288	0.337774
0.000294	0.333791
0.000301	0.328486
0.000307	0.317810
0.000314	0.312765
0.000320	0.307302
0.000326	0.297074
0.000333	0.294739
0.000339	0.287874
0.000346	0.283496
0.000352	0.274890
0.000358	0.269544
0.000365	0.265469
0.000371	0.260495
0.000378	0.253327
0.000384	0.250322
0.000390	0.245118
0.000397	0.238522
0.000403	0.234635
0.000410	0.233191
0.000422	0.221829
0.000435	0.213345
0.000448	0.203909
0.000461	0.196112
0.000474	0.188587
0.000486	0.180858
0.000499	0.173295
0.000512	0.166133
0.000525	0.159283
0.000538	0.152381
0.000550	0.146016
0.000563	0.139503
0.000576	0.132092
0.000589	0.127600
0.000602	0.120667
0.000614	0.116431
0.000627	0.111270
0.000640	0.106750
0.000653	0.100646
0.000666	0.096928
0.000678	0.091471
0.000691	0.087893
0.000704	0.083384
0.000717	0.080037
0.000730	0.075927
0.000742	0.073630
0.000755	0.068111
0.000768	0.067216
0.000781	0.064178
0.000794	0.059947
0.000806	0.058334
0.000819	0.053379
0.000845	0.051563
0.000870	0.046911
0.000896	0.043437
0.000922	0.038611
0.000947	0.036348
0.000973	0.030949
0.000998	0.027916
0.001024	0.025594
0.001050	0.022107
0.001075	0.022210
0.001101	0.018763
0.001126	0.017790
0.001152	0.015855
0.001178	0.015144
0.001203	0.014301
0.001229	0.012689
0.001254	0.012336
0.001280	0.012087
0.001306	0.011519
0.001331	0.009892
0.001357	0.009129
0.001382	0.008905
0.001408	0.008023
0.001434	0.007803
0.001459	0.007805
0.001485	0.007574
0.001510	0.008208
0.001536	0.008006
0.001562	0.006916
0.001587	0.006765
0.001613	0.006352
0.001638	0.006653
0.001690	0.007718
0.001741	0.006737
0.001792	0.005916
0.001843	0.005344
0.001894	0.005054
0.001946	0.004206
0.001997	0.004790
0.002048	0.005741
0.002099	0.004755
0.002150	0.003904
0.002202	0.005020
0.002253	0.004190
0.002304	0.003922
0.002355	0.002768
0.002406	0.003903
0.002458	0.001558
0.002509	0.000631
0.002560	-0.000200
0.002611	-0.000107
0.002662	0.001002
0.002714	-0.000535
0.002765	0.000268
0.002816	-0.000498
0.002867	-0.000149
0.002918	-0.000613
0.002970	0.000334
0.003021	-0.000130
0.003072	0.000602
0.003123	0.000561
0.003174	0.002142
0.003226	0.003252
0.003277	0.004212
0.003379	0.005127
0.003482	0.005121
0.003584	0.006249
0.003686	0.005169
0.003789	0.004140
0.003891	0.003154
0.003994	0.002700
0.004096	0.001492
0.004198	0.001504
0.004301	0.001930
0.004403	0.001607
0.004506	0.000746
0.004608	0.001418
0.004710	0.002652
0.004813	0.004500
0.004915	0.005936
0.005018	0.005067
0.005120	0.003999
0.005222	0.004008
0.005325	0.004152
0.005427	0.004019
0.005530	0.002960
0.005632	0.001451
0.005734	-0.000376
0.005837	-0.001688
0.005939	-0.002236
0.006042	-0.001155
0.006144	0.001339
0.006246	0.002783
0.006349	0.003077
0.006451	0.003123
0.006554	0.004152
0.006758	0.003568
0.006963	0.003668
0.007168	0.000524
0.007373	-0.001772
0.007578	-0.003449
0.007782	-0.004413
0.007987	-0.004363
0.008192	-0.003187
0.008397	-0.001914
0.008602	-0.002605
0.008806	-0.002348
0.009011	-0.000333
0.009216	0.000331
0.009421	0.000690
0.009626	0.000970
0.009830	0.003127
0.010035	0.002862
0.010240	0.000563
0.010445	-0.003119
0.010650	-0.005238
0.010854	-0.001897
0.011059	0.000939
0.011264	0.001677
0.011469	-0.000421
0.011674	-0.002636
0.011878	-0.003980
0.012083	-0.005021
0.012288	-0.006162
0.012493	-0.006776
0.012698	-0.006595
0.012902	-0.005938
0.013107	-0.005761
0.013517	-0.002034
0.013926	0.000740
0.014336	6.416190E-5
0.014746	-0.001615
0.015155	0.002062
0.015565	0.004734
0.015974	0.003003
0.016384	0.003792
0.016794	0.002264
0.017203	0.002593
0.017613	0.000475
0.018022	-4.368570E-5
0.018432	0.001891
0.018842	0.000795
0.019251	0.000199
0.019661	-0.002914
0.020070	-0.001456
0.020480	0.002585
0.020890	0.001998
0.021299	0.005478
0.021709	0.005605
0.022118	0.003383
0.022528	0.000955
0.022938	0.000715
0.023347	0.000573
0.023757	0.004367
0.024166	0.006046
0.024576	0.002504
0.024986	0.001674
0.025395	-0.003916
0.025805	-0.002655
0.026214	0.002795
0.027034	0.005988
0.027853	0.005496
0.028672	-0.001097
0.029491	-2.406270E-5
0.030310	-0.001329
0.031130	-0.001238
0.031949	0.002790
0.032768	0.002765
0.033587	0.005659
0.034406	0.002080
0.035226	0.000702
0.036045	-0.001062
0.036864	0.001834
0.037683	-0.005027
0.038502	-0.002151
0.039322	-0.007030
0.040141	-0.000488
0.040960	-0.003118
0.041779	-0.000310
0.042598	-0.000293
0.043418	0.000985
0.044237	-0.001683
0.045056	-0.002549
0.045875	0.007307
0.046694	0.010091
0.047514	0.001694
0.048333	4.214625E-5
0.049152	0.001044
0.049971	0.000288
0.050790	-0.002193
0.051610	-0.003741
0.052429	0.001257
0.054067	0.002111
0.055706	0.000267
0.057344	0.000948
0.058982	-0.001095
0.060621	0.002232
0.062259	0.003819
0.063898	0.002533
0.065536	0.000887
0.067174	0.001541
0.068813	-0.001893
0.070451	0.000680
0.072090	-3.528000E-5
0.073728	0.001866
0.075366	-0.000152
0.077005	0.001427
0.078643	0.001142
0.080282	0.002405
0.081920	0.009291
0.083558	-0.000688
0.085197	-0.000933
0.086835	0.000746
0.088474	-0.000999
0.090112	0.001246
0.091750	-0.002629
0.093389	0.002984
0.095027	0.002755
0.096666	0.007085
0.098304	0.000572
0.099942	0.001793
0.101581	0.001568
0.103219	-0.002849
0.104858	0.001206
0.108134	-0.000437
0.111411	0.002326
0.114688	0.001926
0.117965	-0.001695
0.121242	2.538583E-5
0.124518	0.001512
0.127795	0.002652
0.131072	0.000653
0.134349	-0.000209
0.137626	0.000977
0.140902	0.002238
0.144179	0.001432
0.147456	-0.001277
0.150733	-0.000827
0.154010	-0.000522
0.157286	0.002883
0.160563	0.000364
0.163840	-0.000705
0.167117	-0.001856
0.170394	0.000833
0.173670	-0.000619
0.176947	0.000633
0.180224	-0.002206
0.183501	0.000212
0.186778	0.002924
0.190054	0.000451
0.193331	-0.002648
0.196608	0.000777
0.199885	0.002370
0.203162	-0.000108
0.206438	-0.001598
0.209715	-0.000673
0.216269	-0.000304
0.222822	-0.001049
0.229376	0.000880
0.235930	-0.000763
0.242483	-0.001428
0.249037	0.001928
0.255590	0.001389
0.262144	0.000601
0.268698	0.000930
0.275251	0.000159
0.281805	0.001080
0.288358	-0.002471
0.294912	-0.000221
0.301466	-0.001758
0.308019	0.000764
0.314573	-0.002272
0.321126	-0.001543
0.327680	0.000398
0.334234	-0.001440
0.340787	-0.001340
0.347341	-0.000673
0.353894	-0.002788
0.360448	7.486236E-6
0.367002	-0.004033
0.373555	-0.001273
0.380109	0.000759
0.386662	0.000377
0.393216	0.001037
0.399770	0.000835
0.406323	0.001468
0.412877	-0.001071
0.419430	-0.001287
0.432538	-1.017596E-5
0.445645	-0.001091
0.458752	0.000864
0.471859	-0.001294
0.484966	-0.000983
0.498074	-0.001008
0.511181	0.000396
0.524288	0.000927
0.537395	0.000682
0.550502	-0.000128
0.563610	-0.000544
0.576717	0.000511
0.589824	-0.000509
0.602931	-0.001076
0.616038	0.000302
0.629146	0.000281
0.642253	0.000844
0.655360	-0.000716
0.668467	0.000593
0.681574	-0.000756
0.694682	0.000590
0.707789	0.000281
0.720896	0.001598
0.734003	-0.001801
0.747110	0.000311
0.760218	0.000741
0.773325	5.848445E-5
0.786432	0.000970
0.799539	0.001171
0.812646	-0.000429
0.825754	0.000504
0.838861	-0.000286
0.865075	0.001334
0.891290	0.000945
0.917504	-0.000630
0.943718	-6.276622E-7
0.969933	-0.001591
0.996147	-0.000268
1.022362	0.000574
1.048576	-8.294823E-5
1.074790	-0.000352
1.101005	-0.000883
1.127219	-3.473836E-5
1.153434	0.001195
1.179648	-0.001524
1.205862	-0.000845
1.232077	0.000481
1.258291	0.000267
1.284506	0.001125
1.310720	-2.758828E-5
1.336934	-6.864564E-5
1.363149	-0.001375
1.389363	-0.000661
1.415578	0.000629
1.441792	-0.000657
1.468006	-0.000567
1.494221	-0.000759
1.520435	0.000751
1.546650	0.000472
1.572864	-0.000561
1.599078	0.000905
1.625293	1.559281E-5
1.651507	0.002344
1.677722	0.000848
1.730150	-0.000166
1.782579	0.001102
1.835008	0.001057
1.887437	0.000258
1.939866	0.000551
1.992294	-0.000987
2.044723	0.000371
2.097152	0.000174
2.149581	-0.000757
2.202010	-4.201916E-5
2.254438	-0.000651
2.306867	0.000355
2.359296	-0.000819
2.411725	-0.000282
2.464154	0.001089
2.516582	0.000459
2.569011	0.001590
2.621440	-0.000420
2.673869	0.001456
2.726298	0.001132
2.778726	-0.000801
2.831155	0.000753
2.883584	-0.000737
2.936013	8.827623E-5
2.988442	2.455442E-5
3.040870	-0.001970
3.093299	0.000521
3.145728	-0.000367
3.198157	-0.001173
3.250586	-0.000473
3.303015	0.000871
3.355443	0.002230
3.460301	6.474698E-5
3.565158	-0.000334
3.670016	-0.000207
3.774873	-8.919015E-6
3.879731	-0.000845
3.984589	0.000587
4.089447	-1.945845E-5
4.194304	1.308515E-5
4.299161	0.001279
4.404019	0.001340
4.508877	-0.000416
4.613734	-0.000646
4.718592	-0.001017
4.823450	-0.000806
4.928307	-9.906670E-5
5.033165	0.000322
5.138022	-1.724230E-5
5.242880	-0.000284
5.347738	-0.000763
5.452595	-0.000657
5.557453	0.000238
5.662311	-0.000721
5.767168	-0.001012
5.872025	0.000140
5.976883	0.001063
6.081741	0.000617
6.186598	0.000221
6.291456	-0.000401
6.396314	-0.000500
6.501171	-0.000239
6.606029	0.000266
6.710886	0.000845
6.920601	-0.000269
7.130317	-0.000162
7.340032	-0.000470
7.549747	-0.001286
7.759462	-0.000127
7.969178	-0.000524
8.178893	-0.000358
8.388608	0.000130
8.598323	-1.013316E-5
8.808039	0.000715
9.017754	-0.001296
9.227468	-0.000702
9.437184	0.000658
9.646899	-0.000438
9.856614	-0.000501
10.066330	0.000272
10.276045	-0.000569
10.485760	-0.000367
10.695476	0.000101
10.905190	-0.000206
11.114905	0.000468
11.324621	0.000312
11.534336	-0.000278
11.744051	-0.000824
11.953767	-0.000130
12.163482	0.000825
12.373197	5.804350E-8
12.582912	-0.000211
12.792627	0.000788
13.002342	-0.000199
13.212058	0.000740
13.421773	-0.000529
13.841203	4.849524E-5
14.260633	-0.000132
14.680064	-0.000462
15.099494	0.000252
15.518925	-5.809575E-5
15.938355	0.000295
16.357786	7.360427E-5
16.777216	9.944865E-5
17.196646	-0.000348
17.616077	-5.509111E-5
18.035507	0.000288
18.454937	0.000000
18.874369	NaN
19.293798	NaN
19.713228	NaN
20.132660	NaN
20.552090	NaN
20.971519	NaN
21.390951	NaN
21.810381	NaN
22.229811	NaN
22.649242	NaN
23.068672	NaN
23.488102	NaN
23.907534	NaN
24.326963	NaN
24.746393	NaN
25.165825	NaN
25.585255	NaN
26.004684	NaN
26.424116	NaN
26.843546	NaN
27.682405	NaN
28.521267	NaN
29.360128	NaN
30.198988	NaN
31.037849	NaN
31.876711	NaN
32.715572	NaN
33.554432	NaN
34.393291	NaN
35.232155	NaN
36.071014	NaN
36.909874	NaN
37.748737	NaN
38.587597	NaN
39.426456	NaN
40.265320	NaN
41.104179	NaN
41.943039	NaN
42.781902	NaN
43.620762	NaN
44.459621	NaN
45.298485	NaN
46.137344	NaN
46.976204	NaN
47.815067	NaN
48.653927	NaN
49.492786	NaN
50.331650	NaN
51.170509	NaN
52.009369	NaN
52.848232	NaN
53.687092	NaN
55.364811	NaN
57.042534	NaN
58.720257	NaN
60.397976	NaN
62.075699	NaN
63.753422	NaN
65.431145	NaN
67.108864	NaN
68.786583	NaN
70.464310	NaN
72.142029	NaN
73.819748	NaN
75.497475	NaN
77.175194	NaN
78.852913	NaN
80.530640	NaN
82.208359	NaN
83.886078	NaN
85.563805	NaN
87.241524	NaN
88.919243	NaN
90.596970	NaN
92.274689	NaN
93.952408	NaN
95.630135	NaN
97.307854	NaN
98.985573	NaN
100.663300	NaN
102.341019	NaN
104.018738	NaN
105.696465	NaN
107.374184	NaN
110.729622	NaN
114.085068	NaN
117.440514	NaN
120.795952	NaN
124.151398	NaN
127.506844	NaN
130.862289	NaN
134.217728	NaN
137.573166	NaN
140.928619	NaN
144.284058	NaN
147.639496	NaN
150.994949	NaN
154.350388	NaN
157.705826	NaN
161.061279	NaN
164.416718	NaN
167.772156	NaN
171.127609	NaN
174.483047	NaN
177.838486	NaN
181.193939	NaN
184.549377	NaN
187.904816	NaN
191.260269	NaN
194.615707	NaN
197.971146	NaN
201.326599	NaN
204.682037	NaN
208.037476	NaN
211.392929	NaN
214.748367	NaN
221.459244	NaN
228.170135	NaN
234.881027	NaN
241.591904	NaN
248.302795	NaN
255.013687	NaN
261.724579	NaN
268.435455	NaN
275.146332	NaN
281.857239	NaN
288.568115	NaN
295.278992	NaN
301.989899	NaN
308.700775	NaN
315.411652	NaN
322.122559	NaN
328.833435	NaN
335.544312	NaN
342.255219	NaN
348.966095	NaN
355.676971	NaN
362.387878	NaN
369.098755	NaN
375.809631	NaN
382.520538	NaN
389.231415	NaN
395.942291	NaN
402.653198	NaN
409.364075	NaN
416.074951	NaN
422.785858	NaN
429.496735	NaN
442.918488	NaN
456.340271	NaN
469.762054	NaN
483.183807	NaN
496.605591	NaN
510.027374	NaN
523.449158	NaN
536.870911	NaN
550.292664	NaN
563.714478	NaN
577.136230	NaN
590.557983	NaN
603.979797	NaN
617.401550	NaN
630.823303	NaN
644.245117	NaN
657.666870	NaN
671.088623	NaN
684.510437	NaN
697.932190	NaN
711.353943	NaN
724.775757	NaN
738.197510	NaN
751.619263	NaN
765.041077	NaN
778.462830	NaN
791.884583	NaN
805.306396	NaN
818.728149	NaN
832.149902	NaN
845.571716	NaN
858.993469	NaN
885.836975	NaN
912.680542	NaN
939.524109	NaN
966.367615	NaN
993.211182	NaN
1020.054749	NaN
1046.898315	NaN
1073.741821	NaN
1100.585327	NaN
1127.428955	NaN
1154.272461	NaN
1181.115967	NaN
1207.959595	NaN
1234.803101	NaN
1261.646606	NaN
1288.490234	NaN
1315.333740	NaN
1342.177246	NaN
1369.020874	NaN
1395.864380	NaN
1422.707886	NaN
1449.551514	NaN
1476.395020	NaN
1503.238525	NaN
1530.082153	NaN
1556.925659	NaN
1583.769165	NaN
1610.612793	NaN
1637.456299	NaN
1664.299805	NaN
1691.143433	NaN
1717.986938	NaN
1771.673950	NaN
1825.361084	NaN
1879.048218	NaN
1932.735229	NaN
1986.422363	NaN
2040.109497	NaN
2093.796631	NaN
2147.483643	NaN
2201.170654	NaN
2254.857910	NaN
2308.544922	NaN
2362.231934	NaN
2415.919189	NaN
2469.606201	NaN
2523.293213	NaN
2576.980469	NaN
2630.667480	NaN
2684.354492	NaN
2738.041748	NaN
2791.728760	NaN
2845.415771	NaN
2899.103027	NaN
2952.790039	NaN
3006.477051	NaN
3060.164307	NaN
3113.851318	NaN
3167.538330	NaN
3221.225586	NaN
3274.912598	NaN
3328.599609	NaN
3382.286865	NaN
3435.973877	NaN
0.000000	NaN
0.000000	NaN
0.000000	NaN
0.000000	NaN
0.000000	NaN
0.000000	NaN
0.000000	NaN
0.000000	NaN
0.000000	NaN
0.000000	NaN
0.000000	NaN
0.000000	NaN
0.000000	NaN
0.000000	NaN
0.000000	NaN
0.000000	NaN
0.000000	NaN
0.000000	NaN
0.000000	NaN
0.000000	NaN
0.000000	NaN
0.000000	NaN
0.000000	NaN
0.000000	NaN
0.000000	NaN
0.000000	NaN
0.000000	NaN
0.000000	NaN
0.000000	NaN
0.000000	NaN
0.000000	NaN
0.000000	NaN

Count Rate History (KHz)  CR CHA / CR CHB
0.000000	74.529648	73.957443
0.104858	85.172653	84.142685
0.209715	83.475113	85.859299
0.314573	93.336105	96.006393
0.419430	84.171295	83.866119
0.524288	82.845688	81.920624
0.629146	83.751678	82.263947
0.734003	94.099045	96.359253
0.838861	86.307526	84.438324
0.943718	91.304779	92.611313
1.048576	78.248978	78.458786
1.153434	93.011856	94.032288
1.258291	86.164474	86.383820
1.363149	77.915192	75.883865
1.468006	89.063644	90.970993
1.572864	81.319809	79.774857
1.677722	88.882446	87.242126
1.782579	78.792572	78.029633
1.887437	88.129044	87.356567
1.992294	92.906952	97.570419
2.097152	84.056854	84.638596
2.202010	82.473755	82.092285
2.306867	81.958771	81.577301
2.411725	79.917908	83.856583
2.516582	89.569092	89.797974
2.621440	86.975098	87.938309
2.726298	78.992844	82.283020
2.831155	86.536407	85.229874
2.936013	81.138611	85.840225
3.040870	85.487366	82.921982
3.145728	78.821182	79.565048
3.250586	88.443756	89.969635
3.355443	88.901520	87.976456
3.460301	76.284409	76.704025
3.565158	89.302063	92.220306
3.670016	84.009171	84.791183
3.774874	77.362061	80.986023
3.879731	92.363358	95.319748
3.984589	84.133148	85.506439
4.089446	101.413727	99.334717
4.194304	78.840256	77.877045
4.299162	86.870193	88.157654
4.404019	76.942444	75.445175
4.508877	88.281631	91.733932
4.613734	102.329254	106.992722
4.718592	99.658966	101.089478
4.823450	92.306137	92.220306
4.928307	78.954697	77.676773
5.033165	75.941086	74.281693
5.138022	79.841614	80.661774
5.242880	74.090958	76.570511
5.347738	87.833405	83.332062
5.452595	83.246231	84.381104
5.557453	83.684921	87.385178
5.662310	83.665848	83.761215
5.767168	93.374252	95.424652
5.872026	93.727112	95.243454
5.976883	78.725815	77.505112
6.081741	77.400208	75.387955
6.186598	91.409683	94.203949
6.291456	86.317062	86.784363
6.396314	86.088181	87.575912
6.501171	81.844330	84.209442
6.606029	94.261169	92.773437
6.710886	81.310272	82.139969
6.815744	73.928833	73.881149
6.920602	72.307587	73.852539
7.025459	89.511871	88.739395
7.130317	81.214905	81.977844
7.235174	92.449188	93.669891
7.340032	93.603134	94.337463
7.444890	87.089539	90.341568
7.549747	80.566406	78.773499
7.654605	87.270737	89.464188
7.759462	71.239471	71.573257
7.864320	86.269379	89.139938
7.969178	81.920624	82.960129
8.074035	84.857941	86.641312
8.178893	85.611343	87.795258
8.283750	95.872879	94.871521
8.388608	83.713531	84.571838
8.493466	85.592270	86.832047
8.598323	82.874298	80.966949
8.703181	76.799393	78.611374
8.808038	79.221725	79.412460
8.912896	81.233978	82.387924
9.017754	84.133148	84.428787
9.122611	91.915131	92.477798
9.227469	83.627701	83.160400
9.332326	69.856644	68.130493
9.437184	73.308945	70.562363
9.542042	83.799362	81.615448
9.646899	81.186295	82.492828
9.751757	83.837509	82.454681
9.856614	82.035065	82.578659
9.961472	85.058212	84.247589
10.066330	75.511932	76.322556
10.171187	83.436966	82.416534
10.276045	82.015991	84.333420
10.380902	82.759857	82.931519
10.485760	76.770782	75.664520
10.590618	91.133118	94.356537
10.695475	99.887848	101.232529
10.800333	89.149475	88.434219
10.905190	83.847046	83.618164
11.010048	83.217621	81.539154
11.114906	73.451996	75.597763
11.219763	78.420639	76.694489
11.324621	93.498230	94.146729
11.429478	94.194412	96.530914
11.534336	73.547363	72.851181
11.639194	83.475113	84.333420
11.744051	78.287125	80.223083
11.848909	77.590942	79.030991
11.953766	88.186264	89.807510
12.058624	78.573227	80.108643
12.163482	74.567795	71.964264
12.268339	77.419281	76.179504
12.373197	83.312988	83.713531
12.478054	82.273483	80.337524
12.582912	92.487335	94.852448
12.687770	90.684891	90.332031
12.792627	83.847046	84.238052
12.897485	85.906982	88.691711
13.002342	87.785721	86.011887
13.107200	92.172623	90.465546
13.212058	90.675354	91.781616
13.316915	71.582794	73.375702
13.421773	88.062286	85.411072
13.526630	90.770721	89.845657
13.631488	71.239471	71.134567
13.736346	72.956085	70.323944
13.841203	81.262589	80.823898
13.946061	86.183548	85.382462
14.050918	88.119507	89.263916
14.155776	78.992844	81.386566
14.260634	91.829300	91.123581
14.365491	78.239441	77.476501
14.470349	80.747604	79.526901
14.575206	78.506470	80.499649
14.680064	89.378357	91.228485
14.784922	85.353851	91.066360
14.889779	78.325272	81.844330
14.994637	83.732605	83.045959
15.099494	84.753036	84.266663
15.204352	75.082779	76.417923
15.309210	80.432892	79.011917
15.414067	93.908310	93.688965
15.518925	77.276230	78.802109
15.623782	90.122223	92.201233
15.728640	86.603165	88.481903
15.833498	81.615448	83.379745
15.938355	95.281601	97.684860
16.043213	89.731216	89.683533
16.148070	76.522827	74.911118
16.252928	85.325241	86.755753
16.357786	79.784393	79.097748
16.462643	82.902908	80.299377
16.567501	86.812973	86.917877
16.672358	83.360672	84.295273
16.777216	93.603134	97.513199
16.882074	97.827911	99.534988
16.986931	103.788376	103.054047
17.091789	77.667236	76.189041
17.196646	93.355179	94.394684
17.301504	88.272095	91.152191
17.406362	98.333359	100.669861
17.511219	79.393387	77.896118
17.616077	83.894730	83.065033
17.720934	84.877014	86.727142
17.825792	88.415146	86.345673
17.930650	91.161728	89.712143
18.035507	76.618195	80.556870
18.140365	88.548660	83.513260
18.245222	73.556900	74.586868
18.350080	89.187622	89.426041
18.454938	78.792572	78.887939
18.559795	91.218948	91.314316
18.664653	85.296631	91.419220
18.769510	89.378357	87.146759
18.874368	82.588196	87.871552
18.979226	85.964203	86.975098
19.084083	91.733932	93.603134
19.188941	88.119507	89.035034
19.293798	87.347031	87.652206
