1/9/2026	10:49 AM
Pseudo Cross Correlation
Scattering angle:	80.0
Duration (s):	20
Wavelength (nm):	632.8
Refractive index:	1.330
Viscosity (mPas):	0.774
Temperature (K):	304.5
Laser intensity (mW):	8.515458
Average Count rate  A (kHz):	86.4
Average Count rate  B (kHz):	87.9
Intercept:	0.8850
Cumulant 1st	113.07
Cumulant 2nd	101.71	32.57
Cumulant 3rd	99.38	39.71

Lag time (s)         g2-1
1.250000E-8	0.898494
2.500000E-8	0.927726
3.750000E-8	0.895305
5.000000E-8	0.874045
6.250000E-8	0.942608
7.500000E-8	0.804951
8.750000E-8	0.867667
1.000000E-7	0.933041
1.125000E-7	0.871919
1.250000E-7	0.862884
1.375000E-7	0.901151
1.500000E-7	0.893179
1.625000E-7	0.898494
1.750000E-7	0.948986
1.875000E-7	0.952175
2.000000E-7	0.862884
2.125000E-7	0.934104
2.250000E-7	0.843750
2.375000E-7	0.868730
2.500000E-7	0.877766
2.625000E-7	0.882549
2.750000E-7	0.902214
2.875000E-7	0.835778
3.000000E-7	0.890521
3.125000E-7	0.905403
3.250000E-7	0.865541
3.375000E-7	0.919754
3.500000E-7	0.903277
3.625000E-7	0.900088
3.750000E-7	0.935167
3.875000E-7	0.883612
4.000000E-7	0.902214
4.125000E-7	0.860758
4.250000E-7	0.856506
4.375000E-7	0.933572
4.500000E-7	0.799636
4.625000E-7	0.905403
4.750000E-7	0.901683
4.875000E-7	0.842156
5.000000E-7	0.857569
5.125000E-7	0.934104
5.250000E-7	0.892647
5.375000E-7	0.858632
5.500000E-7	0.906466
5.625000E-7	0.894242
5.750000E-7	0.895836
5.875000E-7	0.873514
6.000000E-7	0.909124
6.125000E-7	0.843750
6.250000E-7	0.902214
6.375000E-7	0.887332
6.500000E-7	0.873514
6.625000E-7	0.879360
6.750000E-7	0.879360
6.875000E-7	0.883081
7.000000E-7	0.877766
7.125000E-7	0.896368
7.250000E-7	0.869793
7.375000E-7	0.897962
7.500000E-7	0.865541
7.625000E-7	0.822490
7.750000E-7	0.867136
7.875000E-7	0.880423
8.000000E-7	0.904872
8.250000E-7	0.899291
8.500000E-7	0.882815
8.750000E-7	0.865010
9.000000E-7	0.883878
9.250000E-7	0.850925
9.500000E-7	0.875640
9.750000E-7	0.865010
1.000000E-6	0.875640
1.025000E-6	0.883878
1.050000E-6	0.885738
1.075000E-6	0.886535
1.100000E-6	0.893976
1.125000E-6	0.888395
1.150000E-6	0.864744
1.175000E-6	0.856240
1.200000E-6	0.906998
1.225000E-6	0.879094
1.250000E-6	0.870059
1.275000E-6	0.882018
1.300000E-6	0.888130
1.325000E-6	0.895571
1.350000E-6	0.862884
1.375000E-6	0.882549
1.400000E-6	0.883878
1.425000E-6	0.854911
1.450000E-6	0.878297
1.475000E-6	0.891850
1.500000E-6	0.877766
1.525000E-6	0.912047
1.550000E-6	0.846673
1.575000E-6	0.838169
1.600000E-6	0.898228
1.650000E-6	0.915634
1.700000E-6	0.877234
1.750000E-6	0.906998
1.800000E-6	0.872052
1.850000E-6	0.883878
1.900000E-6	0.855576
1.950000E-6	0.891053
2.000000E-6	0.876171
2.050000E-6	0.857569
2.100000E-6	0.879493
2.150000E-6	0.879227
2.200000E-6	0.891452
2.250000E-6	0.891584
2.300000E-6	0.884675
2.350000E-6	0.853981
2.400000E-6	0.890521
2.450000E-6	0.877234
2.500000E-6	0.872849
2.550000E-6	0.878031
2.600000E-6	0.884409
2.650000E-6	0.885074
2.700000E-6	0.895836
2.750000E-6	0.871122
2.800000E-6	0.893578
2.850000E-6	0.878297
2.900000E-6	0.923740
2.950000E-6	0.927992
3.000000E-6	0.886137
3.050000E-6	0.869129
3.100000E-6	0.908459
3.150000E-6	0.901417
3.200000E-6	0.874577
3.300000E-6	0.858898
3.400000E-6	0.885738
3.500000E-6	0.896833
3.600000E-6	0.878762
3.700000E-6	0.871720
3.800000E-6	0.887332
3.900000E-6	0.876835
4.000000E-6	0.864943
4.100000E-6	0.879294
4.200000E-6	0.864213
4.300000E-6	0.854247
4.400000E-6	0.876437
4.500000E-6	0.889525
4.600000E-6	0.860891
4.700000E-6	0.877699
4.800000E-6	0.886336
4.900000E-6	0.878164
5.000000E-6	0.886801
5.100000E-6	0.874577
5.200000E-6	0.868132
5.300000E-6	0.877301
5.400000E-6	0.870325
5.500000E-6	0.876171
5.600000E-6	0.877168
5.700000E-6	0.866804
5.800000E-6	0.869594
5.900000E-6	0.868664
6.000000E-6	0.863349
6.100000E-6	0.882084
6.200000E-6	0.872384
6.300000E-6	0.892116
6.400000E-6	0.879892
6.600000E-6	0.863681
6.800000E-6	0.877433
7.000000E-6	0.881420
7.200000E-6	0.873082
7.400000E-6	0.867700
7.600000E-6	0.863747
7.800000E-6	0.884476
8.000000E-6	0.869727
8.200000E-6	0.879227
8.400000E-6	0.872584
8.600000E-6	0.874909
8.800000E-6	0.874577
9.000000E-6	0.878031
9.200000E-6	0.869660
9.400000E-6	0.859263
9.600000E-6	0.885040
9.800000E-6	0.872650
1.000000E-5	0.867634
1.020000E-5	0.868797
1.040000E-5	0.882483
1.060000E-5	0.862751
1.080000E-5	0.858798
1.100000E-5	0.865442
1.120000E-5	0.864910
1.140000E-5	0.867302
1.160000E-5	0.880589
1.180000E-5	0.861555
1.200000E-5	0.867501
1.220000E-5	0.876736
1.240000E-5	0.872451
1.260000E-5	0.863581
1.280000E-5	0.873713
1.320000E-5	0.863897
1.360000E-5	0.867584
1.400000E-5	0.879792
1.440000E-5	0.863914
1.480000E-5	0.855194
1.520000E-5	0.857453
1.560000E-5	0.866106
1.600000E-5	0.860990
1.640000E-5	0.866770
1.680000E-5	0.869411
1.720000E-5	0.861804
1.760000E-5	0.867318
1.800000E-5	0.860376
1.840000E-5	0.863349
1.880000E-5	0.866538
1.920000E-5	0.855144
1.960000E-5	0.863050
2.000000E-5	0.857120
2.040000E-5	0.866770
2.080000E-5	0.847288
2.120000E-5	0.857735
2.160000E-5	0.853832
2.200000E-5	0.846457
2.240000E-5	0.855509
2.280000E-5	0.848849
2.320000E-5	0.850128
2.360000E-5	0.848733
2.400000E-5	0.857137
2.440000E-5	0.859662
2.480000E-5	0.843983
2.520000E-5	0.860509
2.560000E-5	0.846989
2.640000E-5	0.853948
2.720000E-5	0.849023
2.800000E-5	0.850576
2.880000E-5	0.850792
2.960000E-5	0.848384
3.040000E-5	0.851124
3.120000E-5	0.844605
3.200000E-5	0.848492
3.280000E-5	0.846839
3.360000E-5	0.838335
3.440000E-5	0.839266
3.520000E-5	0.838502
3.600000E-5	0.830446
3.680000E-5	0.832315
3.760000E-5	0.836949
3.840000E-5	0.831600
3.920000E-5	0.831468
4.000000E-5	0.834889
4.080000E-5	0.826285
4.160000E-5	0.830513
4.240000E-5	0.832796
4.320000E-5	0.833469
4.400000E-5	0.819550
4.480000E-5	0.825870
4.560000E-5	0.824425
4.640000E-5	0.831086
4.720000E-5	0.811553
4.800000E-5	0.819941
4.880000E-5	0.815730
4.960000E-5	0.821087
5.040000E-5	0.818089
5.120000E-5	0.814327
5.280000E-5	0.809766
5.440000E-5	0.816322
5.600000E-5	0.809143
5.760000E-5	0.811916
5.920000E-5	0.806967
6.080000E-5	0.803309
6.240000E-5	0.803745
6.400000E-5	0.795116
6.560000E-5	0.794319
6.720000E-5	0.793837
6.880000E-5	0.790927
7.040000E-5	0.795835
7.200000E-5	0.790541
7.360000E-5	0.784362
7.520000E-5	0.784557
7.680000E-5	0.778158
7.840000E-5	0.784709
8.000000E-5	0.777683
8.160000E-5	0.776807
8.320000E-5	0.780664
8.480000E-5	0.774295
8.640000E-5	0.772268
8.800000E-5	0.768428
8.960000E-5	0.770886
9.120000E-5	0.759646
9.280000E-5	0.755614
9.440000E-5	0.758333
9.600000E-5	0.759965
9.760000E-5	0.756772
9.920000E-5	0.758284
0.000101	0.755153
0.000102	0.753255
0.000106	0.747572
0.000109	0.743125
0.000112	0.735595
0.000115	0.738591
0.000118	0.727686
0.000122	0.729627
0.000125	0.726263
0.000128	0.719320
0.000131	0.712138
0.000134	0.713422
0.000138	0.712634
0.000141	0.704101
0.000144	0.701907
0.000147	0.699933
0.000150	0.690679
0.000154	0.688385
0.000157	0.685345
0.000160	0.682497
0.000163	0.682972
0.000166	0.676841
0.000170	0.674682
0.000173	0.670407
0.000176	0.668551
0.000179	0.663055
0.000182	0.660914
0.000186	0.653874
0.000189	0.650795
0.000192	0.649190
0.000195	0.647552
0.000198	0.640704
0.000202	0.636687
0.000205	0.634841
0.000211	0.627251
0.000218	0.620832
0.000224	0.615786
0.000230	0.607981
0.000237	0.601929
0.000243	0.597647
0.000250	0.590189
0.000256	0.582729
0.000262	0.576976
0.000269	0.571475
0.000275	0.565565
0.000282	0.558842
0.000288	0.554272
0.000294	0.545740
0.000301	0.542540
0.000307	0.536050
0.000314	0.532058
0.000320	0.526498
0.000326	0.517933
0.000333	0.516159
0.000339	0.510619
0.000346	0.501984
0.000352	0.499360
0.000358	0.493609
0.000365	0.489303
0.000371	0.482783
0.000378	0.481421
0.000384	0.475042
0.000390	0.470331
0.000397	0.466489
0.000403	0.462525
0.000410	0.456531
0.000422	0.447800
0.000435	0.442042
0.000448	0.432385
0.000461	0.425376
0.000474	0.416996
0.000486	0.409268
0.000499	0.400218
0.000512	0.393185
0.000525	0.387455
0.000538	0.381245
0.000550	0.373461
0.000563	0.366530
0.000576	0.362662
0.000589	0.354610
0.000602	0.349583
0.000614	0.343855
0.000627	0.336954
0.000640	0.331855
0.000653	0.325417
0.000666	0.321171
0.000678	0.312021
0.000691	0.309593
0.000704	0.302515
0.000717	0.298883
0.000730	0.293567
0.000742	0.287894
0.000755	0.282960
0.000768	0.277334
0.000781	0.275220
0.000794	0.269072
0.000806	0.263512
0.000819	0.259301
0.000845	0.250527
0.000870	0.241242
0.000896	0.232503
0.000922	0.223566
0.000947	0.216330
0.000973	0.208739
0.000998	0.201923
0.001024	0.194039
0.001050	0.186432
0.001075	0.179753
0.001101	0.172351
0.001126	0.167108
0.001152	0.160692
0.001178	0.155316
0.001203	0.150368
0.001229	0.144149
0.001254	0.140253
0.001280	0.134829
0.001306	0.129496
0.001331	0.126169
0.001357	0.122329
0.001382	0.118672
0.001408	0.115578
0.001434	0.112561
0.001459	0.109198
0.001485	0.106418
0.001510	0.103400
0.001536	0.099260
0.001562	0.096019
0.001587	0.093628
0.001613	0.090118
0.001638	0.087159
0.001690	0.080838
0.001741	0.075213
0.001792	0.069770
0.001843	0.063598
0.001894	0.058426
0.001946	0.052588
0.001997	0.047849
0.002048	0.043661
0.002099	0.039689
0.002150	0.036435
0.002202	0.033762
0.002253	0.030656
0.002304	0.029397
0.002355	0.026852
0.002406	0.025563
0.002458	0.023362
0.002509	0.021659
0.002560	0.019531
0.002611	0.017164
0.002662	0.015415
0.002714	0.013336
0.002765	0.012391
0.002816	0.010545
0.002867	0.009214
0.002918	0.009602
0.002970	0.009810
0.003021	0.008397
0.003072	0.009082
0.003123	0.008048
0.003174	0.007177
0.003226	0.006159
0.003277	0.005553
0.003379	0.003805
0.003482	0.002482
0.003584	0.001829
0.003686	0.001735
0.003789	0.001202
0.003891	0.000977
0.003994	0.001976
0.004096	0.005047
0.004198	0.007232
0.004301	0.009521
0.004403	0.010087
0.004506	0.009890
0.004608	0.009761
0.004710	0.009109
0.004813	0.009124
0.004915	0.009090
0.005018	0.009023
0.005120	0.008935
0.005222	0.008162
0.005325	0.007735
0.005427	0.006616
0.005530	0.004627
0.005632	0.003117
0.005734	0.002590
0.005837	0.002422
0.005939	0.001912
0.006042	0.003147
0.006144	0.004092
0.006246	0.005044
0.006349	0.004480
0.006451	0.004459
0.006554	0.005373
0.006758	0.006440
0.006963	0.006578
0.007168	0.006654
0.007373	0.006628
0.007578	0.006111
0.007782	0.004794
0.007987	0.004569
0.008192	0.004802
0.008397	0.005150
0.008602	0.005675
0.008806	0.005835
0.009011	0.006650
0.009216	0.007051
0.009421	0.008036
0.009626	0.007792
0.009830	0.008451
0.010035	0.008848
0.010240	0.009187
0.010445	0.009477
0.010650	0.009332
0.010854	0.007244
0.011059	0.004617
0.011264	0.002499
0.011469	0.003244
0.011674	0.003375
0.011878	0.003356
0.012083	0.003279
0.012288	0.003813
0.012493	0.005397
0.012698	0.006510
0.012902	0.008624
0.013107	0.012070
0.013517	0.014745
0.013926	0.014815
0.014336	0.012654
0.014746	0.012592
0.015155	0.010461
0.015565	0.008614
0.015974	0.009016
0.016384	0.010738
0.016794	0.009398
0.017203	0.003659
0.017613	0.000904
0.018022	0.000501
0.018432	0.003389
0.018842	0.006206
0.019251	0.006654
0.019661	0.006542
0.020070	0.004443
0.020480	0.003266
0.020890	0.003986
0.021299	0.001816
0.021709	0.000332
0.022118	-0.001923
0.022528	-0.002988
0.022938	-0.002887
0.023347	-0.002885
0.023757	0.000124
0.024166	0.003966
0.024576	0.005613
0.024986	0.002340
0.025395	0.000943
0.025805	-0.000685
0.026214	-0.003868
0.027034	-0.005729
0.027853	-0.004266
0.028672	-0.002332
0.029491	-0.002143
0.030310	-0.003401
0.031130	-0.003796
0.031949	0.002277
0.032768	0.005202
0.033587	0.009085
0.034406	0.008170
0.035226	0.004084
0.036045	0.002730
0.036864	-0.004105
0.037683	-0.005763
0.038502	-0.004113
0.039322	-0.003284
0.040141	0.001947
0.040960	0.005107
0.041779	0.008806
0.042598	0.007604
0.043418	0.002724
0.044237	0.004661
0.045056	0.003521
0.045875	-2.806036E-5
0.046694	-0.001030
0.047514	-0.004272
0.048333	-0.002503
0.049152	-0.005587
0.049971	-0.003478
0.050790	-0.000334
0.051610	-0.001747
0.052429	0.000906
0.054067	0.000347
0.055706	0.005707
0.057344	0.000993
0.058982	0.002293
0.060621	0.002315
0.062259	0.003750
0.063898	-0.000975
0.065536	-0.002600
0.067174	-0.009575
0.068813	-0.007836
0.070451	0.002316
0.072090	0.001931
0.073728	-0.001104
0.075366	0.006033
0.077005	0.010836
0.078643	0.006927
0.080282	0.002908
0.081920	-0.001045
0.083558	-0.000506
0.085197	0.001775
0.086835	-0.000852
0.088474	-0.003348
0.090112	-0.004961
0.091750	0.000215
0.093389	-0.007715
0.095027	7.415380E-5
0.096666	0.002608
0.098304	0.007669
0.099942	0.004814
0.101581	0.010273
0.103219	0.006385
0.104858	0.001227
0.108134	0.002521
0.111411	-0.001350
0.114688	0.000695
0.117965	0.000423
0.121242	0.005784
0.124518	-0.004271
0.127795	0.000275
0.131072	0.002626
0.134349	-0.002519
0.137626	0.004183
0.140902	0.000457
0.144179	0.004033
0.147456	-0.006581
0.150733	-0.004130
0.154010	-0.004602
0.157286	0.003592
0.160563	0.002234
0.163840	-0.000877
0.167117	0.002454
0.170394	-0.004311
0.173670	-0.009299
0.176947	-0.006894
0.180224	0.000911
0.183501	-0.002730
0.186778	-0.005769
0.190054	0.002675
0.193331	-0.002208
0.196608	0.000845
0.199885	0.003507
0.203162	0.001811
0.206438	-0.004103
0.209715	-0.001419
0.216269	0.000553
0.222822	0.001111
0.229376	-0.001905
0.235930	-1.303097E-5
0.242483	0.005426
0.249037	0.004442
0.255590	-0.000500
0.262144	-0.000422
0.268698	0.002524
0.275251	-0.001390
0.281805	-0.000519
0.288358	-0.000599
0.294912	-0.001278
0.301466	-0.001269
0.308019	-0.001728
0.314573	0.001284
0.321126	-0.000163
0.327680	0.001251
0.334234	-0.001452
0.340787	0.004835
0.347341	0.005672
0.353894	-0.001721
0.360448	0.005938
0.367002	0.002222
0.373555	0.005016
0.380109	0.005270
0.386662	-0.000392
0.393216	0.001586
0.399770	0.009066
0.406323	-0.001515
0.412877	-0.002642
0.419430	-0.001675
0.432538	-0.001458
0.445645	-0.001161
0.458752	-0.001603
0.471859	-0.001598
0.484966	-0.003245
0.498074	-0.000363
0.511181	0.000412
0.524288	-0.002457
0.537395	-0.001999
0.550502	-0.002313
0.563610	-0.000602
0.576717	-0.000841
0.589824	-0.001088
0.602931	0.000492
0.616038	0.004757
0.629146	0.002948
0.642253	0.003607
0.655360	-0.000267
0.668467	-0.001604
0.681574	-0.003689
0.694682	-0.002287
0.707789	-0.002854
0.720896	-0.004758
0.734003	0.001946
0.747110	0.000594
0.760218	0.000787
0.773325	-0.000707
0.786432	0.000255
0.799539	0.000112
0.812646	-0.001045
0.825754	0.002803
0.838861	0.001455
0.865075	-1.638846E-5
0.891290	-0.000762
0.917504	-0.002526
0.943718	-0.000705
0.969933	-0.001449
0.996147	0.002346
1.022362	-0.001624
1.048576	-0.002895
1.074790	0.001314
1.101005	-0.001119
1.127219	0.002222
1.153434	-0.000445
1.179648	-0.000175
1.205862	0.003157
1.232077	-0.002171
1.258291	-0.001365
1.284506	-0.001519
1.310720	0.000135
1.336934	-0.003426
1.363149	-0.001511
1.389363	0.001148
1.415578	0.003047
1.441792	0.003885
1.468006	0.000609
1.494221	0.000918
1.520435	-0.000833
1.546650	0.000212
1.572864	-0.000566
1.599078	-0.003017
1.625293	-0.002284
1.651507	0.001365
1.677722	-0.000276
1.730150	-0.002549
1.782579	0.000228
1.835008	-0.000617
1.887437	-0.000418
1.939866	-0.000383
1.992294	0.000774
2.044723	0.001928
2.097152	0.001123
2.149581	-0.001049
2.202010	0.000781
2.254438	0.001174
2.306867	-0.000202
2.359296	0.000377
2.411725	0.001877
2.464154	-0.000366
2.516582	-0.003003
2.569011	-0.002285
2.621440	0.000595
2.673869	-0.000415
2.726298	-0.000367
2.778726	0.000731
2.831155	-0.001026
2.883584	-0.000994
2.936013	0.000311
2.988442	-0.000603
3.040870	-0.002052
3.093299	-0.002266
3.145728	0.001038
3.198157	7.489319E-5
3.250586	0.001016
3.303015	-0.000878
3.355443	-0.001962
3.460301	0.000879
3.565158	-0.000874
3.670016	-1.803506E-5
3.774873	0.002299
3.879731	0.000188
3.984589	-0.000827
4.089447	0.001243
4.194304	0.000200
4.299161	-0.000155
4.404019	0.001446
4.508877	9.903124E-5
4.613734	1.375708E-5
4.718592	-0.001039
4.823450	-7.197951E-5
4.928307	0.001061
5.033165	-0.000204
5.138022	0.000258
5.242880	-0.001041
5.347738	-0.000937
5.452595	-0.000192
5.557453	0.000879
5.662311	0.001006
5.767168	5.809169E-5
5.872025	0.001030
5.976883	0.001081
6.081741	0.001425
6.186598	-0.000634
6.291456	-0.002298
6.396314	-1.406567E-5
6.501171	0.001140
6.606029	-0.000354
6.710886	-0.000498
6.920601	-0.000674
7.130317	0.000750
7.340032	-0.001862
7.549747	0.000667
7.759462	-0.000345
7.969178	6.698742E-5
8.178893	-0.000412
8.388608	-0.001109
8.598323	0.001130
8.808039	-0.000701
9.017754	0.000858
9.227468	-0.000189
9.437184	-6.563597E-5
9.646899	0.000146
9.856614	0.001061
10.066330	0.001227
10.276045	-0.002085
10.485760	-5.456330E-5
10.695476	-0.001174
10.905190	9.815209E-5
11.114905	-0.000678
11.324621	-0.001151
11.534336	3.209578E-5
11.744051	-0.001880
11.953767	0.000856
12.163482	5.799852E-5
12.373197	0.000679
12.582912	-0.000262
12.792627	-0.000605
13.002342	-0.000195
13.212058	0.002519
13.421773	0.001452
13.841203	-7.122954E-5
14.260633	-0.000564
14.680064	0.001419
15.099494	-0.000329
15.518925	-0.000216
15.938355	-9.336619E-5
16.357786	0.000129
16.777216	3.657974E-5
17.196646	-0.000125
17.616077	-0.000142
18.035507	0.000544
18.454937	-0.000373
18.874369	0.000000
19.293798	NaN
19.713228	NaN
20.132660	NaN
20.552090	NaN
20.971519	NaN
21.390951	NaN
21.810381	NaN
22.229811	NaN
22.649242	NaN
23.068672	NaN
23.488102	NaN
23.907534	NaN
24.326963	NaN
24.746393	NaN
25.165825	NaN
25.585255	NaN
26.004684	NaN
26.424116	NaN
26.843546	NaN
27.682405	NaN
28.521267	NaN
29.360128	NaN
30.198988	NaN
31.037849	NaN
31.876711	NaN
32.715572	NaN
33.554432	NaN
34.393291	NaN
35.232155	NaN
36.071014	NaN
36.909874	NaN
37.748737	NaN
38.587597	NaN
39.426456	NaN
40.265320	NaN
41.104179	NaN
41.943039	NaN
42.781902	NaN
43.620762	NaN
44.459621	NaN
45.298485	NaN
46.137344	NaN
46.976204	NaN
47.815067	NaN
48.653927	NaN
49.492786	NaN
50.331650	NaN
51.170509	NaN
52.009369	NaN
52.848232	NaN
53.687092	NaN
55.364811	NaN
57.042534	NaN
58.720257	NaN
60.397976	NaN
62.075699	NaN
63.753422	NaN
65.431145	NaN
67.108864	NaN
68.786583	NaN
70.464310	NaN
72.142029	NaN
73.819748	NaN
75.497475	NaN
77.175194	NaN
78.852913	NaN
80.530640	NaN
82.208359	NaN
83.886078	NaN
85.563805	NaN
87.241524	NaN
88.919243	NaN
90.596970	NaN
92.274689	NaN
93.952408	NaN
95.630135	NaN
97.307854	NaN
98.985573	NaN
100.663300	NaN
102.341019	NaN
104.018738	NaN
105.696465	NaN
107.374184	NaN
110.729622	NaN
114.085068	NaN
117.440514	NaN
120.795952	NaN
124.151398	NaN
127.506844	NaN
130.862289	NaN
134.217728	NaN
137.573166	NaN
140.928619	NaN
144.284058	NaN
147.639496	NaN
150.994949	NaN
154.350388	NaN
157.705826	NaN
161.061279	NaN
164.416718	NaN
167.772156	NaN
171.127609	NaN
174.483047	NaN
177.838486	NaN
181.193939	NaN
184.549377	NaN
187.904816	NaN
191.260269	NaN
194.615707	NaN
197.971146	NaN
201.326599	NaN
204.682037	NaN
208.037476	NaN
211.392929	NaN
214.748367	NaN
221.459244	NaN
228.170135	NaN
234.881027	NaN
241.591904	NaN
248.302795	NaN
255.013687	NaN
261.724579	NaN
268.435455	NaN
275.146332	NaN
281.857239	NaN
288.568115	NaN
295.278992	NaN
301.989899	NaN
308.700775	NaN
315.411652	NaN
322.122559	NaN
328.833435	NaN
335.544312	NaN
342.255219	NaN
348.966095	NaN
355.676971	NaN
362.387878	NaN
369.098755	NaN
375.809631	NaN
382.520538	NaN
389.231415	NaN
395.942291	NaN
402.653198	NaN
409.364075	NaN
416.074951	NaN
422.785858	NaN
429.496735	NaN
442.918488	NaN
456.340271	NaN
469.762054	NaN
483.183807	NaN
496.605591	NaN
510.027374	NaN
523.449158	NaN
536.870911	NaN
550.292664	NaN
563.714478	NaN
577.136230	NaN
590.557983	NaN
603.979797	NaN
617.401550	NaN
630.823303	NaN
644.245117	NaN
657.666870	NaN
671.088623	NaN
684.510437	NaN
697.932190	NaN
711.353943	NaN
724.775757	NaN
738.197510	NaN
751.619263	NaN
765.041077	NaN
778.462830	NaN
791.884583	NaN
805.306396	NaN
818.728149	NaN
832.149902	NaN
845.571716	NaN
858.993469	NaN
885.836975	NaN
912.680542	NaN
939.524109	NaN
966.367615	NaN
993.211182	NaN
1020.054749	NaN
1046.898315	NaN
1073.741821	NaN
1100.585327	NaN
1127.428955	NaN
1154.272461	NaN
1181.115967	NaN
1207.959595	NaN
1234.803101	NaN
1261.646606	NaN
1288.490234	NaN
1315.333740	NaN
1342.177246	NaN
1369.020874	NaN
1395.864380	NaN
1422.707886	NaN
1449.551514	NaN
1476.395020	NaN
1503.238525	NaN
1530.082153	NaN
1556.925659	NaN
1583.769165	NaN
1610.612793	NaN
1637.456299	NaN
1664.299805	NaN
1691.143433	NaN
1717.986938	NaN
1771.673950	NaN
1825.361084	NaN
1879.048218	NaN
1932.735229	NaN
1986.422363	NaN
2040.109497	NaN
2093.796631	NaN
2147.483643	NaN
2201.170654	NaN
2254.857910	NaN
2308.544922	NaN
2362.231934	NaN
2415.919189	NaN
2469.606201	NaN
2523.293213	NaN
2576.980469	NaN
2630.667480	NaN
2684.354492	NaN
2738.041748	NaN
2791.728760	NaN
2845.415771	NaN
2899.103027	NaN
2952.790039	NaN
3006.477051	NaN
3060.164307	NaN
3113.851318	NaN
3167.538330	NaN
3221.225586	NaN
3274.912598	NaN
3328.599609	NaN
3382.286865	NaN
3435.973877	NaN
0.000000	NaN
0.000000	NaN
0.000000	NaN
0.000000	NaN
0.000000	NaN
0.000000	NaN
0.000000	NaN
0.000000	NaN
0.000000	NaN
0.000000	NaN
0.000000	NaN
0.000000	NaN
0.000000	NaN
0.000000	NaN
0.000000	NaN
0.000000	NaN
0.000000	NaN
0.000000	NaN
0.000000	NaN
0.000000	NaN
0.000000	NaN
0.000000	NaN
0.000000	NaN
0.000000	NaN
0.000000	NaN
0.000000	NaN
0.000000	NaN
0.000000	NaN
0.000000	NaN
0.000000	NaN
0.000000	NaN
0.000000	NaN

Count Rate History (KHz)  CR CHA / CR CHB
0.000000	77.390671	80.165863
0.104858	95.024109	95.834732
0.209715	83.761215	84.495544
0.314573	82.635880	85.449219
0.419430	71.344376	67.873001
0.524288	82.836151	84.133148
0.629146	80.194473	84.695816
0.734003	99.782944	102.958679
0.838861	79.774857	81.071854
0.943718	82.569122	82.874298
1.048576	92.954636	94.261169
1.153434	97.370148	102.014542
1.258291	72.355270	72.994232
1.363149	83.446503	84.657669
1.468006	80.471039	79.135895
1.572864	100.927353	104.484558
1.677722	84.495544	81.396103
1.782579	82.082748	84.495544
1.887437	88.624954	92.239380
1.992294	100.717545	104.188919
2.097152	69.322586	67.939758
2.202010	104.408264	107.736588
2.306867	80.137253	81.167221
2.411725	77.009201	82.292557
2.516582	94.652176	94.213486
2.621440	89.902878	92.191696
2.726298	92.544556	92.496872
2.831155	75.330734	77.362061
2.936013	106.582642	109.348297
3.040870	93.269348	94.614029
3.145728	91.419220	95.024109
3.250586	100.259781	103.912354
3.355443	89.063644	92.144012
3.460301	84.934235	84.762573
3.565158	93.879700	96.359253
3.670016	90.131760	91.857910
3.774874	75.082779	73.690414
3.879731	82.607269	92.267990
3.984589	112.066269	108.766556
4.089446	81.806183	82.349777
4.194304	78.248978	81.110001
4.299162	99.058151	98.762512
4.404019	104.398727	106.763840
4.508877	87.957382	87.413788
4.613734	82.244873	88.701248
4.718592	88.376999	83.808899
4.823450	76.665878	77.772141
4.928307	72.431564	73.757172
5.033165	80.451965	79.374313
5.138022	94.852448	98.361969
5.242880	72.088242	73.575974
5.347738	84.018707	84.533691
5.452595	89.082718	89.387894
5.557453	85.802078	90.494156
5.662310	85.935593	85.096359
5.767168	82.321167	82.492828
5.872026	104.942322	108.718872
5.976883	99.658966	100.879669
6.081741	88.500977	89.368820
6.186598	82.654953	86.565018
6.291456	77.228546	81.405640
6.396314	88.157654	88.348389
6.501171	77.857971	81.996918
6.606029	109.577179	112.981796
6.710886	125.865936	125.465393
6.815744	87.919235	93.040466
6.920602	77.867508	78.535080
7.025459	71.086884	71.210861
7.130317	89.282990	95.720291
7.235174	85.000992	80.919266
7.340032	84.085464	86.879730
7.444890	78.411102	79.126358
7.549747	83.341599	81.739426
7.654605	71.067810	73.537827
7.759462	94.127655	101.613998
7.864320	90.751648	90.656281
7.969178	74.119568	77.610016
8.074035	91.800690	92.220306
8.178893	85.954666	88.586807
8.283750	85.210800	86.421967
8.388608	71.640015	73.165894
8.493466	82.349777	82.015991
8.598323	83.990097	86.774826
8.703181	99.029541	101.451874
8.808038	96.883774	101.652145
8.912896	100.965500	101.099014
9.017754	91.400146	94.594955
9.122611	87.699890	89.445114
9.227469	81.090927	85.039139
9.332326	89.254379	86.584091
9.437184	87.394714	90.103149
9.542042	82.912445	80.842972
9.646899	91.123581	94.079971
9.751757	67.520142	65.965652
9.856614	83.274841	83.913803
9.961472	68.674088	69.866180
10.066330	73.251724	77.972412
10.171187	90.866089	95.643997
10.276045	76.980591	74.644089
10.380902	79.975128	82.988739
10.485760	104.436874	109.052658
10.590618	79.755783	81.729889
10.695475	80.852509	83.599091
10.800333	109.157562	110.445023
10.905190	86.021423	91.114044
11.010048	104.522705	104.150772
11.114906	84.571838	84.581375
11.219763	85.620880	87.156296
11.324621	81.081390	80.947876
11.429478	64.163208	64.496994
11.534336	81.996918	82.492828
11.639194	92.134476	95.653534
11.744051	87.003708	89.063644
11.848909	83.456039	86.374283
11.953766	87.051392	90.274811
12.058624	87.556839	88.205338
12.163482	87.203979	89.807510
12.268339	91.180801	93.059540
12.373197	87.375641	88.739395
12.478054	85.020065	87.251663
12.582912	99.639893	101.594925
12.687770	99.811554	104.732513
12.792627	92.124939	97.227097
12.897485	71.134567	72.059631
13.002342	88.024139	90.303421
13.107200	85.296631	85.563660
13.212058	91.218948	92.554092
13.316915	74.014664	71.029663
13.421773	89.588165	90.417862
13.526630	79.498291	80.051422
13.631488	80.480576	81.605911
13.736346	78.487396	82.321167
13.841203	74.720383	70.886612
13.946061	75.416565	76.580048
14.050918	69.313049	64.649582
14.155776	82.521439	84.733963
14.260634	88.081360	92.506409
14.365491	71.945190	68.349838
14.470349	76.217651	77.838898
14.575206	92.163086	93.679428
14.680064	74.968338	75.664520
14.784922	91.190338	95.033646
14.889779	88.663101	90.484619
14.994637	79.002380	77.695847
15.099494	74.968338	76.198578
15.204352	96.254349	99.220276
15.309210	70.314407	69.789886
15.414067	86.860657	96.349716
15.518925	76.904297	72.727203
15.623782	88.510513	93.679428
15.728640	78.878403	75.998306
15.833498	89.693069	95.338821
15.938355	97.961426	99.143982
16.043213	78.716278	82.092285
16.148070	80.785751	78.220367
16.252928	90.656281	93.860626
16.357786	95.424652	98.819733
16.462643	99.954605	102.863312
16.567501	99.201202	102.300644
16.672358	96.044540	102.081299
16.777216	95.281601	92.811584
16.882074	85.830688	85.077286
16.986931	81.033707	81.615448
17.091789	75.407028	75.597763
17.196646	87.499619	88.987350
17.301504	89.740753	87.814331
17.406362	86.765289	92.868805
17.511219	79.879761	79.889297
17.616077	87.738037	91.800690
17.720934	99.534988	103.664398
17.825792	95.081329	92.325211
17.930650	86.002350	87.862015
18.035507	89.464188	95.405579
18.140365	84.428787	82.893372
18.245222	91.247559	89.626312
18.350080	81.434250	81.806183
18.454938	79.307556	76.351166
18.559795	78.020096	79.765320
18.664653	97.513199	109.748840
18.769510	87.985992	79.336166
18.874368	88.357925	91.676712
18.979226	82.349777	84.190369
19.084083	95.052719	98.571777
19.188941	91.753006	92.620850
19.293798	83.885193	87.537766
19.398656	82.597733	80.919266
19.503514	70.676804	73.127747
19.608371	83.398819	84.075928
19.713229	101.900101	106.935501
