1/9/2026	10:50 AM
Pseudo Cross Correlation
Scattering angle:	110.0
Duration (s):	20
Wavelength (nm):	632.8
Refractive index:	1.330
Viscosity (mPas):	0.774
Temperature (K):	304.6
Laser intensity (mW):	8.510453
Average Count rate  A (kHz):	76.2
Average Count rate  B (kHz):	77.1
Intercept:	0.8489
Cumulant 1st	100.49
Cumulant 2nd	105.43	26.08
Cumulant 3rd	107.70	39.99

Lag time (s)         g2-1
1.250000E-8	0.840016
2.500000E-8	0.801041
3.750000E-8	0.864632
5.000000E-8	0.839332
6.250000E-8	0.865999
7.500000E-8	0.904290
8.750000E-8	0.846170
1.000000E-7	0.847538
1.125000E-7	0.930957
1.250000E-7	0.842751
1.375000E-7	0.799674
1.500000E-7	0.844119
1.625000E-7	0.822922
1.750000E-7	0.831127
1.875000E-7	0.847538
2.000000E-7	0.838649
2.125000E-7	0.878307
2.250000E-7	0.790785
2.375000E-7	0.861897
2.500000E-7	0.858478
2.625000E-7	0.909760
2.750000E-7	0.795571
2.875000E-7	0.848221
3.000000E-7	0.837281
3.125000E-7	0.787366
3.250000E-7	0.817452
3.375000E-7	0.887880
3.500000E-7	0.919333
3.625000E-7	0.782580
3.750000E-7	0.856427
3.875000E-7	0.891299
4.000000E-7	0.890615
4.125000E-7	0.817452
4.250000E-7	0.831127
4.375000E-7	0.872153
4.500000E-7	0.834546
4.625000E-7	0.852324
4.750000E-7	0.848221
4.875000E-7	0.881726
5.000000E-7	0.823606
5.125000E-7	0.840700
5.250000E-7	0.873521
5.375000E-7	0.900188
5.500000E-7	0.868734
5.625000E-7	0.861897
5.750000E-7	0.820187
5.875000E-7	0.833179
6.000000E-7	0.773691
6.125000E-7	0.856427
6.250000E-7	0.870102
6.375000E-7	0.792836
6.500000E-7	0.822238
6.625000E-7	0.847538
6.750000E-7	0.857110
6.875000E-7	0.878307
7.000000E-7	0.827025
7.125000E-7	0.839332
7.250000E-7	0.786682
7.375000E-7	0.831127
7.500000E-7	0.859162
7.625000E-7	0.891299
7.750000E-7	0.857110
7.875000E-7	0.827708
8.000000E-7	0.908393
8.250000E-7	0.820187
8.500000E-7	0.852324
8.750000E-7	0.804460
9.000000E-7	0.847196
9.250000E-7	0.835230
9.500000E-7	0.843435
9.750000E-7	0.875914
1.000000E-6	0.836255
1.025000E-6	0.835914
1.050000E-6	0.825657
1.075000E-6	0.828734
1.100000E-6	0.875572
1.125000E-6	0.852666
1.150000E-6	0.878307
1.175000E-6	0.896769
1.200000E-6	0.825657
1.225000E-6	0.851640
1.250000E-6	0.875572
1.275000E-6	0.822580
1.300000E-6	0.830443
1.325000E-6	0.867709
1.350000E-6	0.836255
1.375000E-6	0.855401
1.400000E-6	0.871469
1.425000E-6	0.797623
1.450000E-6	0.851982
1.475000E-6	0.869076
1.500000E-6	0.848221
1.525000E-6	0.817110
1.550000E-6	0.854033
1.575000E-6	0.887880
1.600000E-6	0.873863
1.650000E-6	0.835401
1.700000E-6	0.854717
1.750000E-6	0.836085
1.800000E-6	0.867025
1.850000E-6	0.806170
1.900000E-6	0.834033
1.950000E-6	0.856256
2.000000E-6	0.811127
2.050000E-6	0.823777
2.100000E-6	0.884632
2.150000E-6	0.826854
2.200000E-6	0.854546
2.250000E-6	0.866512
2.300000E-6	0.846170
2.350000E-6	0.820016
2.400000E-6	0.806512
2.450000E-6	0.823435
2.500000E-6	0.830102
2.550000E-6	0.853350
2.600000E-6	0.824461
2.650000E-6	0.863435
2.700000E-6	0.855230
2.750000E-6	0.839674
2.800000E-6	0.857110
2.850000E-6	0.858649
2.900000E-6	0.839503
2.950000E-6	0.827708
3.000000E-6	0.840358
3.050000E-6	0.822751
3.100000E-6	0.814033
3.150000E-6	0.866854
3.200000E-6	0.856939
3.300000E-6	0.827196
3.400000E-6	0.837879
3.500000E-6	0.859760
3.600000E-6	0.834888
3.700000E-6	0.839589
3.800000E-6	0.854632
3.900000E-6	0.846683
4.000000E-6	0.829589
4.100000E-6	0.854974
4.200000E-6	0.823093
4.300000E-6	0.837196
4.400000E-6	0.839503
4.500000E-6	0.861726
4.600000E-6	0.821298
4.700000E-6	0.837110
4.800000E-6	0.850871
4.900000E-6	0.824888
5.000000E-6	0.827367
5.100000E-6	0.829332
5.200000E-6	0.857452
5.300000E-6	0.853521
5.400000E-6	0.841469
5.500000E-6	0.857025
5.600000E-6	0.835486
5.700000E-6	0.821042
5.800000E-6	0.848478
5.900000E-6	0.815401
6.000000E-6	0.853008
6.100000E-6	0.871128
6.200000E-6	0.840016
6.300000E-6	0.842153
6.400000E-6	0.833264
6.600000E-6	0.827281
6.800000E-6	0.853093
7.000000E-6	0.844717
7.200000E-6	0.836896
7.400000E-6	0.829204
7.600000E-6	0.840315
7.800000E-6	0.840700
8.000000E-6	0.827153
8.200000E-6	0.841982
8.400000E-6	0.823905
8.600000E-6	0.818948
8.800000E-6	0.826811
9.000000E-6	0.809375
9.200000E-6	0.833520
9.400000E-6	0.815999
9.600000E-6	0.821768
9.800000E-6	0.819802
1.000000E-5	0.830914
1.020000E-5	0.851170
1.040000E-5	0.832537
1.060000E-5	0.828178
1.080000E-5	0.814631
1.100000E-5	0.821683
1.120000E-5	0.828905
1.140000E-5	0.814973
1.160000E-5	0.811255
1.180000E-5	0.808948
1.200000E-5	0.825572
1.220000E-5	0.807922
1.240000E-5	0.841256
1.260000E-5	0.827110
1.280000E-5	0.805828
1.320000E-5	0.818990
1.360000E-5	0.828414
1.400000E-5	0.817815
1.440000E-5	0.816234
1.480000E-5	0.825251
1.520000E-5	0.812046
1.560000E-5	0.819888
1.600000E-5	0.804631
1.640000E-5	0.816341
1.680000E-5	0.821811
1.720000E-5	0.809097
1.760000E-5	0.814161
1.800000E-5	0.812794
1.840000E-5	0.814183
1.880000E-5	0.805165
1.920000E-5	0.805016
1.960000E-5	0.814503
2.000000E-5	0.800806
2.040000E-5	0.799482
2.080000E-5	0.816127
2.120000E-5	0.806298
2.160000E-5	0.791554
2.200000E-5	0.796148
2.240000E-5	0.802644
2.280000E-5	0.796704
2.320000E-5	0.806234
2.360000E-5	0.799375
2.400000E-5	0.802772
2.440000E-5	0.795935
2.480000E-5	0.811255
2.520000E-5	0.796661
2.560000E-5	0.800208
2.640000E-5	0.790187
2.720000E-5	0.786714
2.800000E-5	0.784182
2.880000E-5	0.794930
2.960000E-5	0.777291
3.040000E-5	0.786426
3.120000E-5	0.786084
3.200000E-5	0.777174
3.280000E-5	0.776095
3.360000E-5	0.778039
3.440000E-5	0.778830
3.520000E-5	0.777537
3.600000E-5	0.771939
3.680000E-5	0.772772
3.760000E-5	0.776020
3.840000E-5	0.774332
3.920000E-5	0.763135
4.000000E-5	0.764417
4.080000E-5	0.770934
4.160000E-5	0.766971
4.240000E-5	0.765977
4.320000E-5	0.757355
4.400000E-5	0.760208
4.480000E-5	0.755806
4.560000E-5	0.754844
4.640000E-5	0.756607
4.720000E-5	0.747441
4.800000E-5	0.751554
4.880000E-5	0.750806
4.960000E-5	0.736832
5.040000E-5	0.753595
5.120000E-5	0.745400
5.280000E-5	0.744243
5.440000E-5	0.733973
5.600000E-5	0.731477
5.760000E-5	0.727947
5.920000E-5	0.724078
6.080000E-5	0.728602
6.240000E-5	0.726781
6.400000E-5	0.721472
6.560000E-5	0.719922
6.720000E-5	0.714106
6.880000E-5	0.703172
7.040000E-5	0.708305
7.200000E-5	0.705907
7.360000E-5	0.699773
7.520000E-5	0.702256
7.680000E-5	0.701006
7.840000E-5	0.694992
8.000000E-5	0.688081
8.160000E-5	0.691666
8.320000E-5	0.687622
8.480000E-5	0.684695
8.640000E-5	0.682018
8.800000E-5	0.676741
8.960000E-5	0.677307
9.120000E-5	0.673594
9.280000E-5	0.671248
9.440000E-5	0.665597
9.600000E-5	0.661942
9.760000E-5	0.654933
9.920000E-5	0.659404
0.000101	0.656775
0.000102	0.650082
0.000106	0.646438
0.000109	0.644209
0.000112	0.633287
0.000115	0.629029
0.000118	0.625625
0.000122	0.618024
0.000125	0.618427
0.000128	0.608156
0.000131	0.602767
0.000134	0.599694
0.000138	0.595062
0.000141	0.591509
0.000144	0.585925
0.000147	0.579567
0.000150	0.578887
0.000154	0.569508
0.000157	0.568624
0.000160	0.561108
0.000163	0.555244
0.000166	0.551872
0.000170	0.546721
0.000173	0.545295
0.000176	0.538633
0.000179	0.536618
0.000182	0.529380
0.000186	0.527547
0.000189	0.521480
0.000192	0.517350
0.000195	0.509597
0.000198	0.510604
0.000202	0.500236
0.000205	0.499970
0.000211	0.489772
0.000218	0.485005
0.000224	0.475567
0.000230	0.465919
0.000237	0.460284
0.000243	0.451937
0.000250	0.446319
0.000256	0.435890
0.000262	0.428934
0.000269	0.421494
0.000275	0.411109
0.000282	0.410069
0.000288	0.402691
0.000294	0.394392
0.000301	0.387967
0.000307	0.381150
0.000314	0.371624
0.000320	0.367851
0.000326	0.361091
0.000333	0.355562
0.000339	0.348105
0.000346	0.344369
0.000352	0.335389
0.000358	0.329780
0.000365	0.324406
0.000371	0.318830
0.000378	0.312138
0.000384	0.307013
0.000390	0.303892
0.000397	0.297215
0.000403	0.290834
0.000410	0.288200
0.000422	0.275958
0.000435	0.268828
0.000448	0.257834
0.000461	0.248827
0.000474	0.238584
0.000486	0.232273
0.000499	0.222312
0.000512	0.215918
0.000525	0.209709
0.000538	0.198994
0.000550	0.193012
0.000563	0.188104
0.000576	0.179944
0.000589	0.174848
0.000602	0.167988
0.000614	0.162898
0.000627	0.156334
0.000640	0.150941
0.000653	0.145601
0.000666	0.140815
0.000678	0.134792
0.000691	0.131703
0.000704	0.129062
0.000717	0.121379
0.000730	0.118518
0.000742	0.113667
0.000755	0.108537
0.000768	0.105949
0.000781	0.100642
0.000794	0.098796
0.000806	0.094870
0.000819	0.092352
0.000845	0.086270
0.000870	0.080110
0.000896	0.075717
0.000922	0.071234
0.000947	0.066999
0.000973	0.061457
0.000998	0.058775
0.001024	0.054555
0.001050	0.051632
0.001075	0.050384
0.001101	0.047149
0.001126	0.044150
0.001152	0.043059
0.001178	0.041587
0.001203	0.039345
0.001229	0.038848
0.001254	0.035516
0.001280	0.033961
0.001306	0.032965
0.001331	0.032796
0.001357	0.031695
0.001382	0.029638
0.001408	0.030880
0.001434	0.029556
0.001459	0.027267
0.001485	0.027257
0.001510	0.025795
0.001536	0.026174
0.001562	0.026613
0.001587	0.024212
0.001613	0.023767
0.001638	0.022166
0.001690	0.022323
0.001741	0.020143
0.001792	0.018320
0.001843	0.017597
0.001894	0.017363
0.001946	0.015751
0.001997	0.014870
0.002048	0.013768
0.002099	0.012227
0.002150	0.011439
0.002202	0.009099
0.002253	0.008590
0.002304	0.007446
0.002355	0.007126
0.002406	0.005609
0.002458	0.006575
0.002509	0.005757
0.002560	0.003926
0.002611	0.003671
0.002662	0.003327
0.002714	0.002363
0.002765	0.002687
0.002816	0.001547
0.002867	0.000570
0.002918	1.287335E-5
0.002970	-0.000230
0.003021	0.000838
0.003072	0.001756
0.003123	3.878352E-5
0.003174	0.002277
0.003226	0.003178
0.003277	0.003548
0.003379	0.005615
0.003482	0.005281
0.003584	0.005097
0.003686	0.003179
0.003789	0.002076
0.003891	0.000954
0.003994	0.000911
0.004096	0.001445
0.004198	0.001932
0.004301	0.000860
0.004403	0.001539
0.004506	0.001266
0.004608	0.002013
0.004710	0.001412
0.004813	0.001351
0.004915	0.002840
0.005018	0.002225
0.005120	0.002933
0.005222	0.003015
0.005325	0.004373
0.005427	0.004068
0.005530	0.002330
0.005632	0.003678
0.005734	0.005077
0.005837	0.006982
0.005939	0.007098
0.006042	0.006527
0.006144	0.006749
0.006246	0.005675
0.006349	0.004343
0.006451	0.004797
0.006554	0.005447
0.006758	0.005437
0.006963	0.003341
0.007168	0.001645
0.007373	-1.082888E-5
0.007578	-0.000651
0.007782	-0.000324
0.007987	-0.000465
0.008192	-0.002229
0.008397	-0.004177
0.008602	-0.006427
0.008806	-0.007052
0.009011	-0.003772
0.009216	-0.001386
0.009421	-0.000571
0.009626	0.003750
0.009830	0.005994
0.010035	0.005435
0.010240	0.004728
0.010445	0.001265
0.010650	-0.003326
0.010854	-0.003484
0.011059	0.000474
0.011264	0.003283
0.011469	0.003546
0.011674	0.005480
0.011878	0.004646
0.012083	0.003714
0.012288	0.003272
0.012493	0.003162
0.012698	0.002628
0.012902	0.001249
0.013107	0.001882
0.013517	0.002142
0.013926	0.001722
0.014336	0.002254
0.014746	0.001356
0.015155	0.002258
0.015565	0.001212
0.015974	-0.003138
0.016384	-0.002643
0.016794	0.000978
0.017203	0.001499
0.017613	0.000435
0.018022	0.005726
0.018432	0.008159
0.018842	0.004530
0.019251	-0.001698
0.019661	-0.002825
0.020070	0.000329
0.020480	0.002785
0.020890	0.001443
0.021299	0.002819
0.021709	0.004908
0.022118	0.006906
0.022528	0.006703
0.022938	0.007098
0.023347	0.005342
0.023757	0.001621
0.024166	-0.002255
0.024576	-0.000603
0.024986	0.000775
0.025395	-0.000465
0.025805	9.545028E-5
0.026214	0.002915
0.027034	0.003423
0.027853	-0.000579
0.028672	0.001394
0.029491	0.003781
0.030310	-0.003696
0.031130	-0.003412
0.031949	-0.001739
0.032768	0.001327
0.033587	0.004320
0.034406	0.005628
0.035226	0.002291
0.036045	0.005614
0.036864	0.003232
0.037683	0.005658
0.038502	0.003320
0.039322	0.001888
0.040141	0.005078
0.040960	0.004501
0.041779	0.002488
0.042598	0.005449
0.043418	0.007787
0.044237	0.005244
0.045056	0.002807
0.045875	0.002315
0.046694	0.008798
0.047514	0.000790
0.048333	0.004104
0.049152	0.005039
0.049971	0.002247
0.050790	0.003723
0.051610	0.009112
0.052429	-0.000131
0.054067	0.002184
0.055706	0.003995
0.057344	-0.001014
0.058982	0.005271
0.060621	0.004387
0.062259	-0.001515
0.063898	-0.000780
0.065536	-0.002113
0.067174	-0.001050
0.068813	0.004177
0.070451	0.005067
0.072090	0.004990
0.073728	0.000419
0.075366	0.002695
0.077005	0.006484
0.078643	0.004377
0.080282	0.004574
0.081920	0.000734
0.083558	0.000747
0.085197	0.000625
0.086835	0.002205
0.088474	0.002455
0.090112	0.003201
0.091750	0.006166
0.093389	-0.000620
0.095027	-0.000895
0.096666	0.000752
0.098304	0.001514
0.099942	0.004479
0.101581	-0.001904
0.103219	0.002359
0.104858	0.000836
0.108134	6.980907E-5
0.111411	0.003049
0.114688	0.000339
0.117965	0.002073
0.121242	0.001238
0.124518	-0.002428
0.127795	-0.001245
0.131072	-0.001065
0.134349	-0.000680
0.137626	0.004969
0.140902	-0.001631
0.144179	-0.001919
0.147456	-0.002133
0.150733	-0.001299
0.154010	0.002469
0.157286	0.002122
0.160563	-0.005905
0.163840	-0.000584
0.167117	-0.001459
0.170394	0.002701
0.173670	0.005347
0.176947	0.001029
0.180224	-0.000193
0.183501	0.001092
0.186778	0.000318
0.190054	7.076460E-5
0.193331	-0.001441
0.196608	-0.004977
0.199885	0.000842
0.203162	0.000121
0.206438	-0.001421
0.209715	0.001938
0.216269	0.002545
0.222822	-0.000340
0.229376	-0.000927
0.235930	0.000262
0.242483	-0.000487
0.249037	0.000193
0.255590	-0.001686
0.262144	0.001484
0.268698	0.000812
0.275251	0.000121
0.281805	-0.002689
0.288358	0.000698
0.294912	-0.001359
0.301466	-0.001366
0.308019	0.000516
0.314573	0.000818
0.321126	-0.001065
0.327680	-0.001005
0.334234	0.001774
0.340787	0.001020
0.347341	-1.862445E-5
0.353894	-0.000598
0.360448	-0.000240
0.367002	-0.002264
0.373555	-0.003366
0.380109	0.000123
0.386662	0.000291
0.393216	-0.000743
0.399770	0.000266
0.406323	0.002411
0.412877	6.768888E-5
0.419430	-0.000496
0.432538	-0.002841
0.445645	-0.000134
0.458752	0.000477
0.471859	-0.001074
0.484966	0.001207
0.498074	0.000865
0.511181	0.000577
0.524288	0.001427
0.537395	-0.000788
0.550502	-0.002084
0.563610	0.000239
0.576717	-0.000185
0.589824	-0.000835
0.602931	-0.000953
0.616038	0.000216
0.629146	-0.001452
0.642253	0.001780
0.655360	-0.000286
0.668467	0.000455
0.681574	-0.000915
0.694682	0.004252
0.707789	0.001179
0.720896	0.000254
0.734003	0.001685
0.747110	0.000233
0.760218	-0.001191
0.773325	0.000116
0.786432	7.685810E-6
0.799539	0.000871
0.812646	-0.001171
0.825754	-0.000158
0.838861	-0.000797
0.865075	0.000350
0.891290	-5.703655E-6
0.917504	0.001644
0.943718	-0.000892
0.969933	0.001055
0.996147	0.000795
1.022362	0.000702
1.048576	-0.000792
1.074790	0.000813
1.101005	0.000578
1.127219	-0.001165
1.153434	0.000305
1.179648	-0.001093
1.205862	-0.001305
1.232077	-0.001135
1.258291	-0.002062
1.284506	-0.000834
1.310720	-0.000205
1.336934	0.000575
1.363149	-9.704999E-5
1.389363	0.001250
1.415578	0.001289
1.441792	0.000347
1.468006	-7.508986E-5
1.494221	-0.000656
1.520435	0.000725
1.546650	0.000730
1.572864	-0.000288
1.599078	0.000978
1.625293	0.000281
1.651507	0.000312
1.677722	-0.000551
1.730150	-0.000574
1.782579	-0.000661
1.835008	-0.000714
1.887437	-0.000194
1.939866	0.000498
1.992294	0.001130
2.044723	0.000934
2.097152	-0.000197
2.149581	0.000680
2.202010	-0.000582
2.254438	-0.000654
2.306867	-0.001282
2.359296	-0.000654
2.411725	-0.001708
2.464154	-0.000342
2.516582	-0.000875
2.569011	-0.000332
2.621440	0.000549
2.673869	-3.610574E-5
2.726298	-0.000391
2.778726	-0.000424
2.831155	0.000828
2.883584	9.576062E-5
2.936013	2.578819E-5
2.988442	-0.000174
3.040870	0.000217
3.093299	-0.000372
3.145728	-5.984839E-5
3.198157	0.000495
3.250586	-5.361933E-6
3.303015	6.697541E-5
3.355443	0.000387
3.460301	0.000321
3.565158	0.000238
3.670016	-0.000462
3.774873	0.000151
3.879731	-0.000365
3.984589	0.000602
4.089447	0.000255
4.194304	0.000636
4.299161	-0.001031
4.404019	-0.001828
4.508877	0.000313
4.613734	-0.000443
4.718592	0.000192
4.823450	0.001071
4.928307	0.001055
5.033165	0.000261
5.138022	-0.000399
5.242880	0.000486
5.347738	-0.001314
5.452595	-0.001399
5.557453	-5.469444E-5
5.662311	0.000370
5.767168	-0.000129
5.872025	-0.000524
5.976883	-1.305959E-5
6.081741	0.000285
6.186598	0.000564
6.291456	-0.000674
6.396314	-0.000424
6.501171	0.000949
6.606029	0.000280
6.710886	0.000702
6.920601	-0.000104
7.130317	-0.000211
7.340032	-0.000257
7.549747	-0.000779
7.759462	-1.371950E-5
7.969178	-0.000524
8.178893	1.706271E-5
8.388608	-0.000353
8.598323	-0.000304
8.808039	0.000274
9.017754	-0.000273
9.227468	-0.000433
9.437184	-0.000563
9.646899	0.000817
9.856614	0.000465
10.066330	-0.000288
10.276045	-0.000869
10.485760	0.001088
10.695476	0.000198
10.905190	-0.000398
11.114905	0.000273
11.324621	0.000717
11.534336	-0.000531
11.744051	0.000834
11.953767	8.963572E-5
12.163482	-0.001031
12.373197	-0.000439
12.582912	0.001523
12.792627	0.000464
13.002342	-0.000742
13.212058	-0.000269
13.421773	0.001251
13.841203	0.000817
14.260633	-0.001438
14.680064	0.002186
15.099494	4.330825E-5
15.518925	0.000526
15.938355	-0.001306
16.357786	-0.001472
16.777216	0.000118
17.196646	-0.001870
17.616077	0.000517
18.035507	-0.000187
18.454937	0.001782
18.874369	-0.001725
19.293798	0.000000
19.713228	NaN
20.132660	NaN
20.552090	NaN
20.971519	NaN
21.390951	NaN
21.810381	NaN
22.229811	NaN
22.649242	NaN
23.068672	NaN
23.488102	NaN
23.907534	NaN
24.326963	NaN
24.746393	NaN
25.165825	NaN
25.585255	NaN
26.004684	NaN
26.424116	NaN
26.843546	NaN
27.682405	NaN
28.521267	NaN
29.360128	NaN
30.198988	NaN
31.037849	NaN
31.876711	NaN
32.715572	NaN
33.554432	NaN
34.393291	NaN
35.232155	NaN
36.071014	NaN
36.909874	NaN
37.748737	NaN
38.587597	NaN
39.426456	NaN
40.265320	NaN
41.104179	NaN
41.943039	NaN
42.781902	NaN
43.620762	NaN
44.459621	NaN
45.298485	NaN
46.137344	NaN
46.976204	NaN
47.815067	NaN
48.653927	NaN
49.492786	NaN
50.331650	NaN
51.170509	NaN
52.009369	NaN
52.848232	NaN
53.687092	NaN
55.364811	NaN
57.042534	NaN
58.720257	NaN
60.397976	NaN
62.075699	NaN
63.753422	NaN
65.431145	NaN
67.108864	NaN
68.786583	NaN
70.464310	NaN
72.142029	NaN
73.819748	NaN
75.497475	NaN
77.175194	NaN
78.852913	NaN
80.530640	NaN
82.208359	NaN
83.886078	NaN
85.563805	NaN
87.241524	NaN
88.919243	NaN
90.596970	NaN
92.274689	NaN
93.952408	NaN
95.630135	NaN
97.307854	NaN
98.985573	NaN
100.663300	NaN
102.341019	NaN
104.018738	NaN
105.696465	NaN
107.374184	NaN
110.729622	NaN
114.085068	NaN
117.440514	NaN
120.795952	NaN
124.151398	NaN
127.506844	NaN
130.862289	NaN
134.217728	NaN
137.573166	NaN
140.928619	NaN
144.284058	NaN
147.639496	NaN
150.994949	NaN
154.350388	NaN
157.705826	NaN
161.061279	NaN
164.416718	NaN
167.772156	NaN
171.127609	NaN
174.483047	NaN
177.838486	NaN
181.193939	NaN
184.549377	NaN
187.904816	NaN
191.260269	NaN
194.615707	NaN
197.971146	NaN
201.326599	NaN
204.682037	NaN
208.037476	NaN
211.392929	NaN
214.748367	NaN
221.459244	NaN
228.170135	NaN
234.881027	NaN
241.591904	NaN
248.302795	NaN
255.013687	NaN
261.724579	NaN
268.435455	NaN
275.146332	NaN
281.857239	NaN
288.568115	NaN
295.278992	NaN
301.989899	NaN
308.700775	NaN
315.411652	NaN
322.122559	NaN
328.833435	NaN
335.544312	NaN
342.255219	NaN
348.966095	NaN
355.676971	NaN
362.387878	NaN
369.098755	NaN
375.809631	NaN
382.520538	NaN
389.231415	NaN
395.942291	NaN
402.653198	NaN
409.364075	NaN
416.074951	NaN
422.785858	NaN
429.496735	NaN
442.918488	NaN
456.340271	NaN
469.762054	NaN
483.183807	NaN
496.605591	NaN
510.027374	NaN
523.449158	NaN
536.870911	NaN
550.292664	NaN
563.714478	NaN
577.136230	NaN
590.557983	NaN
603.979797	NaN
617.401550	NaN
630.823303	NaN
644.245117	NaN
657.666870	NaN
671.088623	NaN
684.510437	NaN
697.932190	NaN
711.353943	NaN
724.775757	NaN
738.197510	NaN
751.619263	NaN
765.041077	NaN
778.462830	NaN
791.884583	NaN
805.306396	NaN
818.728149	NaN
832.149902	NaN
845.571716	NaN
858.993469	NaN
885.836975	NaN
912.680542	NaN
939.524109	NaN
966.367615	NaN
993.211182	NaN
1020.054749	NaN
1046.898315	NaN
1073.741821	NaN
1100.585327	NaN
1127.428955	NaN
1154.272461	NaN
1181.115967	NaN
1207.959595	NaN
1234.803101	NaN
1261.646606	NaN
1288.490234	NaN
1315.333740	NaN
1342.177246	NaN
1369.020874	NaN
1395.864380	NaN
1422.707886	NaN
1449.551514	NaN
1476.395020	NaN
1503.238525	NaN
1530.082153	NaN
1556.925659	NaN
1583.769165	NaN
1610.612793	NaN
1637.456299	NaN
1664.299805	NaN
1691.143433	NaN
1717.986938	NaN
1771.673950	NaN
1825.361084	NaN
1879.048218	NaN
1932.735229	NaN
1986.422363	NaN
2040.109497	NaN
2093.796631	NaN
2147.483643	NaN
2201.170654	NaN
2254.857910	NaN
2308.544922	NaN
2362.231934	NaN
2415.919189	NaN
2469.606201	NaN
2523.293213	NaN
2576.980469	NaN
2630.667480	NaN
2684.354492	NaN
2738.041748	NaN
2791.728760	NaN
2845.415771	NaN
2899.103027	NaN
2952.790039	NaN
3006.477051	NaN
3060.164307	NaN
3113.851318	NaN
3167.538330	NaN
3221.225586	NaN
3274.912598	NaN
3328.599609	NaN
3382.286865	NaN
3435.973877	NaN
0.000000	NaN
0.000000	NaN
0.000000	NaN
0.000000	NaN
0.000000	NaN
0.000000	NaN
0.000000	NaN
0.000000	NaN
0.000000	NaN
0.000000	NaN
0.000000	NaN
0.000000	NaN
0.000000	NaN
0.000000	NaN
0.000000	NaN
0.000000	NaN
0.000000	NaN
0.000000	NaN
0.000000	NaN
0.000000	NaN
0.000000	NaN
0.000000	NaN
0.000000	NaN
0.000000	NaN
0.000000	NaN
0.000000	NaN
0.000000	NaN
0.000000	NaN
0.000000	NaN
0.000000	NaN
0.000000	NaN
0.000000	NaN

Count Rate History (KHz)  CR CHA / CR CHB
0.000000	80.833435	83.942413
0.104858	80.852509	80.833435
0.209715	71.544647	72.135925
0.314573	79.078674	81.920624
0.419430	72.383881	69.932938
0.524288	69.351196	69.913864
0.629146	63.266754	63.295364
0.734003	75.216293	75.960159
0.838861	76.379776	75.063705
0.943718	79.441071	84.495544
1.048576	76.026917	76.522827
1.153434	75.712204	75.387955
1.258291	76.436996	79.326630
1.363149	77.323914	77.657700
1.468006	74.319839	75.750351
1.572864	65.221786	66.375732
1.677722	88.520050	93.097687
1.782579	72.221756	73.442459
1.887437	70.495605	70.581436
1.992294	78.868866	80.881119
2.097152	81.520081	83.732605
2.202010	81.691742	84.571838
2.306867	79.631805	79.174042
2.411725	81.977844	85.268021
2.516582	70.686340	73.852539
2.621440	82.769394	81.882477
2.726298	75.607300	76.770782
2.831155	76.694489	78.830719
2.936013	79.822540	82.254410
3.040870	107.507706	107.126236
3.145728	92.630386	98.867416
3.250586	83.341599	86.107254
3.355443	83.370209	86.908340
3.460301	65.479279	64.706802
3.565158	81.100464	81.605911
3.670016	73.070526	73.242187
3.774874	64.630508	66.528320
3.879731	65.774918	65.746307
3.984589	72.622299	72.145462
4.089446	75.836182	79.250336
4.194304	78.773499	78.907013
4.299162	65.088272	62.351227
4.404019	75.359344	75.664520
4.508877	76.446533	79.545975
4.613734	66.623688	65.078735
4.718592	81.748962	85.268021
4.823450	73.194504	74.100494
4.928307	77.018738	76.913834
5.033165	84.857941	85.849762
5.138022	65.803528	65.746307
5.242880	78.020096	79.250336
5.347738	64.268112	62.131882
5.452595	67.501068	68.998337
5.557453	64.048767	61.988831
5.662310	73.766708	75.426102
5.767168	83.208084	82.902908
5.872026	80.318451	83.885193
5.976883	78.115463	75.254440
6.081741	67.224503	68.397522
6.186598	81.529617	82.740784
6.291456	68.292618	68.311691
6.396314	77.772141	80.232620
6.501171	78.353882	79.402924
6.606029	73.213577	73.385239
6.710886	62.055588	60.033798
6.815744	80.928802	85.649490
6.920602	84.829330	82.855225
7.025459	74.996948	79.689026
7.130317	75.874329	74.634552
7.235174	71.611404	74.615479
7.340032	82.120895	81.138611
7.444890	74.520111	72.031021
7.549747	67.825317	67.052841
7.654605	81.596375	85.077286
7.759462	69.274902	66.642761
7.864320	80.337524	82.044601
7.969178	80.575943	82.578659
8.074035	73.184967	76.513290
8.178893	73.690414	72.603226
8.283750	78.516006	82.292557
8.388608	79.879761	81.930161
8.493466	66.356659	67.882538
8.598323	70.810318	70.266724
8.703181	68.025589	67.968369
8.808038	71.563721	74.996948
8.912896	87.165833	85.887909
9.017754	75.254440	77.095032
9.122611	69.713593	66.423416
9.227469	77.085495	82.035065
9.332326	80.184937	82.120895
9.437184	79.870224	78.573227
9.542042	81.501007	86.145401
9.646899	78.344345	77.524185
9.751757	77.447891	79.860687
9.856614	78.725815	79.612732
9.961472	72.546005	73.432922
10.066330	74.748993	75.368881
10.171187	66.585541	66.699982
10.276045	79.574585	80.089569
10.380902	69.808960	72.889328
10.485760	72.641373	73.862076
10.590618	77.323914	74.443817
10.695475	68.645477	69.742203
10.800333	73.547363	73.881149
10.905190	74.825287	74.710846
11.010048	77.362061	78.134537
11.114906	73.404312	77.667236
11.219763	66.690445	66.900253
11.324621	76.723099	77.228546
11.429478	91.238022	93.870163
11.534336	71.582794	71.115494
11.639194	62.217712	60.701370
11.744051	75.454712	77.009201
11.848909	79.145432	81.844330
11.953766	82.969666	81.214905
12.058624	76.131821	77.028275
12.163482	84.390640	87.347031
12.268339	71.849823	72.336197
12.373197	71.887970	70.056915
12.478054	78.191757	76.856613
12.582912	78.048706	81.224442
12.687770	74.319839	73.671341
12.792627	85.372925	85.649490
12.897485	89.693069	94.165802
13.002342	80.728531	79.946518
13.107200	77.037811	77.314377
13.212058	65.288544	67.243576
13.316915	65.040588	65.145493
13.421773	81.815720	82.492828
13.526630	79.402924	81.825256
13.631488	85.725784	86.545944
13.736346	80.232620	78.926086
13.841203	71.716309	71.268082
13.946061	85.897446	84.409714
14.050918	69.789886	68.883896
14.155776	80.356598	80.642700
14.260634	75.330734	78.105927
14.365491	84.199905	84.304810
14.470349	81.281662	82.406998
14.575206	80.738068	79.298019
14.680064	71.611404	72.736740
14.784922	87.471008	93.355179
14.889779	80.156326	80.547333
14.994637	78.477859	79.250336
15.099494	73.099136	74.300766
15.204352	64.640045	64.659119
15.309210	67.720413	67.968369
15.414067	86.717606	83.389282
15.518925	82.120895	85.563660
15.623782	82.416534	86.078644
15.728640	89.511871	90.770721
15.833498	71.287155	69.856644
15.938355	78.506470	75.330734
16.043213	72.355270	74.281693
16.148070	74.892044	81.205368
16.252928	79.336166	80.375671
16.357786	90.551376	93.383789
16.462643	68.454742	70.381165
16.567501	70.257187	73.003769
16.672358	75.597763	75.025558
16.777216	74.672699	74.214935
16.882074	80.661774	81.939697
16.986931	85.220337	86.755753
17.091789	84.323883	84.743500
17.196646	73.776245	72.851181
17.301504	66.242218	65.946579
17.406362	72.927475	73.347092
17.511219	70.333481	73.318481
17.616077	93.402863	94.909668
17.720934	70.209503	70.333481
17.825792	72.479248	73.976517
17.930650	88.367462	90.665817
18.035507	71.306229	71.010590
18.140365	81.310272	84.648132
18.245222	76.484680	75.645447
18.350080	80.947876	83.780289
18.454938	77.838898	75.502396
18.559795	78.716278	82.168579
18.664653	83.560944	85.296631
18.769510	68.244934	66.070557
18.874368	68.159103	68.359375
18.979226	73.947906	72.374344
19.084083	66.986084	68.836212
19.188941	68.883896	71.668625
19.293798	69.074631	68.578720
19.398656	77.629089	79.479218
19.503514	69.913864	70.848465
19.608371	80.614090	80.718994
19.713229	76.293945	78.334808
19.818086	70.934296	70.829391
