1/9/2026	10:34 AM
Pseudo Cross Correlation
Scattering angle:	130.0
Duration (s):	20
Wavelength (nm):	632.8
Refractive index:	1.330
Viscosity (mPas):	0.773
Temperature (K):	304.6
Laser intensity (mW):	8.511040
Average Count rate  A (kHz):	66.9
Average Count rate  B (kHz):	66.4
Intercept:	0.8230
Cumulant 1st	104.43
Cumulant 2nd	102.58	14.80
Cumulant 3rd	101.87	20.79

Lag time (s)         g2-1
1.250000E-8	0.809369
2.500000E-8	0.798228
3.750000E-8	0.807512
5.000000E-8	0.828864
6.250000E-8	0.772234
7.500000E-8	0.806584
8.750000E-8	0.776876
1.000000E-7	0.888279
1.125000E-7	0.939339
1.250000E-7	0.827007
1.375000E-7	0.811225
1.500000E-7	0.861357
1.625000E-7	0.829793
1.750000E-7	0.810297
1.875000E-7	0.784303
2.000000E-7	0.872497
2.125000E-7	0.840005
2.250000E-7	0.874354
2.375000E-7	0.843718
2.500000E-7	0.808440
2.625000E-7	0.876210
2.750000E-7	0.861357
2.875000E-7	0.706321
3.000000E-7	0.787088
3.125000E-7	0.756452
3.250000E-7	0.876210
3.375000E-7	0.865070
3.500000E-7	0.890136
3.625000E-7	0.806584
3.750000E-7	0.788945
3.875000E-7	0.810297
4.000000E-7	0.842790
4.125000E-7	0.880852
4.250000E-7	0.808440
4.375000E-7	0.857643
4.500000E-7	0.917058
4.625000E-7	0.831649
4.750000E-7	0.782446
4.875000E-7	0.860428
5.000000E-7	0.801942
5.125000E-7	0.850216
5.250000E-7	0.813082
5.375000E-7	0.796372
5.500000E-7	0.772234
5.625000E-7	0.868784
5.750000E-7	0.802870
5.875000E-7	0.888279
6.000000E-7	0.815867
6.125000E-7	0.838148
6.250000E-7	0.807512
6.375000E-7	0.772234
6.500000E-7	0.737885
6.625000E-7	0.775019
6.750000E-7	0.760166
6.875000E-7	0.896634
7.000000E-7	0.871569
7.125000E-7	0.808440
7.250000E-7	0.837219
7.375000E-7	0.762951
7.500000E-7	0.783375
7.625000E-7	0.902204
7.750000E-7	0.906846
7.875000E-7	0.828864
8.000000E-7	0.790802
8.250000E-7	0.785231
8.500000E-7	0.845110
8.750000E-7	0.867391
9.000000E-7	0.810761
9.250000E-7	0.882245
9.500000E-7	0.867855
9.750000E-7	0.826079
1.000000E-6	0.858107
1.025000E-6	0.814011
1.050000E-6	0.814011
1.075000E-6	0.831185
1.100000E-6	0.877139
1.125000E-6	0.844182
1.150000E-6	0.789409
1.175000E-6	0.811690
1.200000E-6	0.852073
1.225000E-6	0.810297
1.250000E-6	0.774555
1.275000E-6	0.819581
1.300000E-6	0.838612
1.325000E-6	0.775019
1.350000E-6	0.827936
1.375000E-6	0.791730
1.400000E-6	0.821902
1.425000E-6	0.807512
1.450000E-6	0.850681
1.475000E-6	0.862749
1.500000E-6	0.804263
1.525000E-6	0.747633
1.550000E-6	0.828400
1.575000E-6	0.853001
1.600000E-6	0.806584
1.650000E-6	0.769449
1.700000E-6	0.828400
1.750000E-6	0.838380
1.800000E-6	0.821437
1.850000E-6	0.831881
1.900000E-6	0.832578
1.950000E-6	0.808672
2.000000E-6	0.837684
2.050000E-6	0.831185
2.100000E-6	0.798693
2.150000E-6	0.816331
2.200000E-6	0.822598
2.250000E-6	0.841397
2.300000E-6	0.807512
2.350000E-6	0.834666
2.400000E-6	0.813778
2.450000E-6	0.827472
2.500000E-6	0.798228
2.550000E-6	0.844414
2.600000E-6	0.808208
2.650000E-6	0.800549
2.700000E-6	0.796372
2.750000E-6	0.781750
2.800000E-6	0.796140
2.850000E-6	0.830721
2.900000E-6	0.821437
2.950000E-6	0.783839
3.000000E-6	0.849520
3.050000E-6	0.803566
3.100000E-6	0.782911
3.150000E-6	0.770146
3.200000E-6	0.840701
3.300000E-6	0.812270
3.400000E-6	0.806352
3.500000E-6	0.843022
3.600000E-6	0.803102
3.700000E-6	0.820973
3.800000E-6	0.786276
3.900000E-6	0.802174
4.000000E-6	0.800549
4.100000E-6	0.809717
4.200000E-6	0.828168
4.300000E-6	0.803218
4.400000E-6	0.805075
4.500000E-6	0.812038
4.600000E-6	0.823410
4.700000E-6	0.829328
4.800000E-6	0.815171
4.900000E-6	0.816680
5.000000E-6	0.784187
5.100000E-6	0.810645
5.200000E-6	0.790453
5.300000E-6	0.816447
5.400000E-6	0.793471
5.500000E-6	0.794979
5.600000E-6	0.814591
5.700000E-6	0.793239
5.800000E-6	0.811574
5.900000E-6	0.810877
6.000000E-6	0.794863
6.100000E-6	0.810645
6.200000E-6	0.811341
6.300000E-6	0.807744
6.400000E-6	0.800549
6.600000E-6	0.806061
6.800000E-6	0.802928
7.000000E-6	0.794515
7.200000E-6	0.804553
7.400000E-6	0.789757
7.600000E-6	0.799389
7.800000E-6	0.796082
8.000000E-6	0.800607
8.200000E-6	0.807454
8.400000E-6	0.808730
8.600000E-6	0.802638
8.800000E-6	0.798286
9.000000E-6	0.787436
9.200000E-6	0.784303
9.400000E-6	0.790105
9.600000E-6	0.797996
9.800000E-6	0.800491
1.000000E-5	0.807860
1.020000E-5	0.808092
1.040000E-5	0.776934
1.060000E-5	0.766548
1.080000E-5	0.805597
1.100000E-5	0.777340
1.120000E-5	0.820625
1.140000E-5	0.788191
1.160000E-5	0.797010
1.180000E-5	0.797474
1.200000E-5	0.789467
1.220000E-5	0.788481
1.240000E-5	0.801072
1.260000E-5	0.783781
1.280000E-5	0.791092
1.320000E-5	0.797938
1.360000E-5	0.778327
1.400000E-5	0.778501
1.440000E-5	0.778733
1.480000E-5	0.784042
1.520000E-5	0.781315
1.560000E-5	0.772525
1.600000E-5	0.780880
1.640000E-5	0.776644
1.680000E-5	0.777979
1.720000E-5	0.772466
1.760000E-5	0.760485
1.800000E-5	0.781228
1.840000E-5	0.761007
1.880000E-5	0.757903
1.920000E-5	0.757874
1.960000E-5	0.763183
2.000000E-5	0.769768
2.040000E-5	0.765823
2.080000E-5	0.765098
2.120000E-5	0.762951
2.160000E-5	0.777253
2.200000E-5	0.756394
2.240000E-5	0.764256
2.280000E-5	0.757787
2.320000E-5	0.768637
2.360000E-5	0.759557
2.400000E-5	0.763937
2.440000E-5	0.758454
2.480000E-5	0.757439
2.520000E-5	0.743223
2.560000E-5	0.745602
2.640000E-5	0.754799
2.720000E-5	0.751332
2.800000E-5	0.750287
2.880000E-5	0.750882
2.960000E-5	0.743296
3.040000E-5	0.742440
3.120000E-5	0.742861
3.200000E-5	0.736420
3.280000E-5	0.741337
3.360000E-5	0.729066
3.440000E-5	0.739452
3.520000E-5	0.724351
3.600000E-5	0.727862
3.680000E-5	0.727021
3.760000E-5	0.718375
3.840000E-5	0.721218
3.920000E-5	0.729109
4.000000E-5	0.723017
4.080000E-5	0.711195
4.160000E-5	0.715619
4.240000E-5	0.718158
4.320000E-5	0.712268
4.400000E-5	0.700722
4.480000E-5	0.713313
4.560000E-5	0.701781
4.640000E-5	0.703289
4.720000E-5	0.689698
4.800000E-5	0.702288
4.880000E-5	0.698590
4.960000E-5	0.686884
5.040000E-5	0.695384
5.120000E-5	0.684954
5.280000E-5	0.694552
5.440000E-5	0.681744
5.600000E-5	0.684202
5.760000E-5	0.681751
5.920000E-5	0.666978
6.080000E-5	0.675652
6.240000E-5	0.676848
6.400000E-5	0.670161
6.560000E-5	0.663366
6.720000E-5	0.657412
6.880000E-5	0.651196
7.040000E-5	0.655822
7.200000E-5	0.655684
7.360000E-5	0.643935
7.520000E-5	0.638140
7.680000E-5	0.636741
7.840000E-5	0.642715
8.000000E-5	0.633576
8.160000E-5	0.629907
8.320000E-5	0.630966
8.480000E-5	0.629769
8.640000E-5	0.626447
8.800000E-5	0.622857
8.960000E-5	0.618644
9.120000E-5	0.612842
9.280000E-5	0.606806
9.440000E-5	0.607691
9.600000E-5	0.609591
9.760000E-5	0.599895
9.920000E-5	0.600054
0.000101	0.593186
0.000102	0.593157
0.000106	0.583381
0.000109	0.579203
0.000112	0.571907
0.000115	0.569369
0.000118	0.567556
0.000122	0.559853
0.000125	0.550070
0.000128	0.545697
0.000131	0.538042
0.000134	0.534981
0.000138	0.528323
0.000141	0.524751
0.000144	0.517223
0.000147	0.517564
0.000150	0.510627
0.000154	0.510366
0.000157	0.498793
0.000160	0.497027
0.000163	0.491722
0.000166	0.483552
0.000170	0.481961
0.000173	0.478284
0.000176	0.468780
0.000179	0.465183
0.000182	0.456117
0.000186	0.456113
0.000189	0.449445
0.000192	0.444400
0.000195	0.440118
0.000198	0.435001
0.000202	0.430124
0.000205	0.429565
0.000211	0.419864
0.000218	0.410991
0.000224	0.399826
0.000230	0.395348
0.000237	0.386113
0.000243	0.379699
0.000250	0.370670
0.000256	0.364088
0.000262	0.357526
0.000269	0.349524
0.000275	0.345129
0.000282	0.337735
0.000288	0.329012
0.000294	0.325068
0.000301	0.315778
0.000307	0.309857
0.000314	0.306234
0.000320	0.297006
0.000326	0.290537
0.000333	0.284793
0.000339	0.281273
0.000346	0.276072
0.000352	0.268698
0.000358	0.260552
0.000365	0.258314
0.000371	0.251181
0.000378	0.246684
0.000384	0.242514
0.000390	0.238893
0.000397	0.232277
0.000403	0.226078
0.000410	0.226071
0.000422	0.215180
0.000435	0.205886
0.000448	0.198222
0.000461	0.190000
0.000474	0.184210
0.000486	0.174229
0.000499	0.165978
0.000512	0.160514
0.000525	0.155831
0.000538	0.148781
0.000550	0.142681
0.000563	0.138679
0.000576	0.132450
0.000589	0.127753
0.000602	0.121507
0.000614	0.118749
0.000627	0.113182
0.000640	0.108742
0.000653	0.105706
0.000666	0.102980
0.000678	0.097187
0.000691	0.093649
0.000704	0.089440
0.000717	0.085699
0.000730	0.082794
0.000742	0.079262
0.000755	0.078007
0.000768	0.075159
0.000781	0.071176
0.000794	0.070559
0.000806	0.068510
0.000819	0.064640
0.000845	0.061432
0.000870	0.055736
0.000896	0.053306
0.000922	0.048931
0.000947	0.044592
0.000973	0.042339
0.000998	0.039329
0.001024	0.035847
0.001050	0.032838
0.001075	0.031352
0.001101	0.028497
0.001126	0.027353
0.001152	0.024511
0.001178	0.023548
0.001203	0.022531
0.001229	0.021006
0.001254	0.020665
0.001280	0.018779
0.001306	0.016883
0.001331	0.016882
0.001357	0.014413
0.001382	0.015432
0.001408	0.013581
0.001434	0.010560
0.001459	0.011348
0.001485	0.010727
0.001510	0.008351
0.001536	0.006058
0.001562	0.006658
0.001587	0.008045
0.001613	0.005505
0.001638	0.005918
0.001690	0.006201
0.001741	0.004697
0.001792	0.005101
0.001843	0.004239
0.001894	0.002491
0.001946	0.001780
0.001997	0.000728
0.002048	0.001207
0.002099	0.002368
0.002150	0.002809
0.002202	0.003758
0.002253	0.003841
0.002304	0.002834
0.002355	0.002941
0.002406	0.001373
0.002458	0.001851
0.002509	0.001205
0.002560	0.001441
0.002611	0.002788
0.002662	0.001790
0.002714	0.002523
0.002765	0.001896
0.002816	0.001732
0.002867	0.002482
0.002918	0.003275
0.002970	0.002443
0.003021	0.002791
0.003072	0.002205
0.003123	0.001098
0.003174	0.002530
0.003226	0.002736
0.003277	0.001895
0.003379	0.003519
0.003482	0.003376
0.003584	0.004440
0.003686	0.004446
0.003789	0.005214
0.003891	0.005192
0.003994	0.005889
0.004096	0.006526
0.004198	0.006646
0.004301	0.006528
0.004403	0.005705
0.004506	0.004136
0.004608	0.000807
0.004710	-0.000832
0.004813	-0.002359
0.004915	-0.003744
0.005018	-0.003289
0.005120	-0.002772
0.005222	-0.002940
0.005325	-0.002871
0.005427	-0.003344
0.005530	-0.003021
0.005632	-0.003032
0.005734	-0.002680
0.005837	-0.003284
0.005939	-0.005104
0.006042	-0.004479
0.006144	-0.004181
0.006246	-0.002710
0.006349	-0.000779
0.006451	-0.000458
0.006554	-0.001494
0.006758	-0.004057
0.006963	-0.005495
0.007168	-0.005378
0.007373	-0.001997
0.007578	-0.000774
0.007782	-0.000654
0.007987	-0.000536
0.008192	9.373527E-5
0.008397	-0.001466
0.008602	-0.000251
0.008806	0.001427
0.009011	0.002410
0.009216	0.001553
0.009421	0.000218
0.009626	-0.000674
0.009830	-0.000700
0.010035	0.001603
0.010240	0.001096
0.010445	-0.000612
0.010650	-0.000458
0.010854	9.930219E-5
0.011059	0.000843
0.011264	0.001319
0.011469	0.003259
0.011674	0.001688
0.011878	0.000516
0.012083	0.000776
0.012288	0.002074
0.012493	0.000965
0.012698	-0.000125
0.012902	-0.000730
0.013107	-0.002575
0.013517	-0.004426
0.013926	-0.001682
0.014336	-0.000656
0.014746	0.001505
0.015155	0.002869
0.015565	0.005139
0.015974	0.007994
0.016384	0.004444
0.016794	0.003992
0.017203	0.000338
0.017613	-0.002716
0.018022	-0.001840
0.018432	-0.002631
0.018842	-0.001306
0.019251	-0.000781
0.019661	0.000858
0.020070	0.003413
0.020480	0.005294
0.020890	0.005230
0.021299	0.001843
0.021709	0.003564
0.022118	0.000934
0.022528	0.000374
0.022938	-0.000272
0.023347	0.001592
0.023757	-7.322995E-5
0.024166	-0.000653
0.024576	-0.001556
0.024986	0.001269
0.025395	0.004703
0.025805	-6.550978E-5
0.026214	0.000431
0.027034	0.003192
0.027853	0.005702
0.028672	0.004088
0.029491	0.001631
0.030310	0.004430
0.031130	-0.002113
0.031949	-0.002138
0.032768	0.001116
0.033587	-0.000868
0.034406	0.002702
0.035226	0.001617
0.036045	0.000552
0.036864	-0.001771
0.037683	0.003513
0.038502	-0.000907
0.039322	0.000350
0.040141	-0.002155
0.040960	-0.004145
0.041779	-0.000718
0.042598	0.000777
0.043418	-0.001351
0.044237	-0.000957
0.045056	0.003024
0.045875	0.001499
0.046694	-0.003106
0.047514	-0.003134
0.048333	-0.006082
0.049152	-0.001515
0.049971	0.004659
0.050790	0.001104
0.051610	-0.000324
0.052429	0.001456
0.054067	0.001678
0.055706	-0.001787
0.057344	-6.161434E-5
0.058982	-0.000342
0.060621	0.004062
0.062259	0.002876
0.063898	-0.001209
0.065536	0.002873
0.067174	0.006416
0.068813	0.000975
0.070451	0.003609
0.072090	0.001543
0.073728	0.003808
0.075366	0.006162
0.077005	0.000710
0.078643	0.004040
0.080282	0.002199
0.081920	0.003007
0.083558	9.141484E-5
0.085197	0.002714
0.086835	0.000388
0.088474	-0.000820
0.090112	0.001581
0.091750	-0.000289
0.093389	0.001777
0.095027	0.001300
0.096666	-0.001339
0.098304	-0.002144
0.099942	0.001523
0.101581	0.002082
0.103219	0.004594
0.104858	0.000637
0.108134	7.069039E-5
0.111411	0.003405
0.114688	0.001059
0.117965	-0.003039
0.121242	-0.001499
0.124518	0.000969
0.127795	0.001079
0.131072	-0.001329
0.134349	0.001031
0.137626	0.000517
0.140902	-0.000797
0.144179	-0.001342
0.147456	0.001482
0.150733	0.004187
0.154010	0.003911
0.157286	0.001730
0.160563	-0.002596
0.163840	-0.001138
0.167117	0.003565
0.170394	0.000738
0.173670	-0.000582
0.176947	0.002286
0.180224	0.000269
0.183501	-0.003016
0.186778	-0.004282
0.190054	-0.002756
0.193331	0.000377
0.196608	-0.001620
0.199885	-0.000832
0.203162	0.004088
0.206438	-0.001141
0.209715	-0.002967
0.216269	-0.000331
0.222822	-0.001118
0.229376	0.000751
0.235930	0.000619
0.242483	-1.291390E-5
0.249037	-0.001255
0.255590	0.000460
0.262144	-0.000586
0.268698	-0.000658
0.275251	-0.001368
0.281805	0.002918
0.288358	-0.000366
0.294912	-0.000532
0.301466	0.000167
0.308019	-0.000593
0.314573	-0.001040
0.321126	0.000957
0.327680	-0.000132
0.334234	-0.000229
0.340787	-0.001839
0.347341	-0.000631
0.353894	-0.001439
0.360448	0.002493
0.367002	-0.000668
0.373555	-0.003344
0.380109	0.000422
0.386662	0.000789
0.393216	0.000886
0.399770	-1.261784E-6
0.406323	-0.001145
0.412877	0.001352
0.419430	0.001319
0.432538	0.000149
0.445645	0.001330
0.458752	0.000207
0.471859	0.000501
0.484966	-0.001446
0.498074	0.001039
0.511181	0.000598
0.524288	0.000600
0.537395	0.001889
0.550502	-0.002239
0.563610	0.000994
0.576717	0.000426
0.589824	0.002420
0.602931	-0.001831
0.616038	0.002247
0.629146	-0.001756
0.642253	-0.000431
0.655360	0.000499
0.668467	0.001709
0.681574	-0.002736
0.694682	-0.001484
0.707789	-0.000189
0.720896	-7.533978E-5
0.734003	-0.000773
0.747110	-0.000135
0.760218	0.000765
0.773325	0.000368
0.786432	-0.000384
0.799539	-0.001301
0.812646	-0.000966
0.825754	0.000387
0.838861	-0.003009
0.865075	-0.000190
0.891290	-0.000998
0.917504	8.818989E-5
0.943718	-0.000740
0.969933	-0.001506
0.996147	-0.001865
1.022362	-0.000246
1.048576	0.000534
1.074790	0.000517
1.101005	-7.477152E-5
1.127219	-8.779197E-6
1.153434	0.000169
1.179648	0.001643
1.205862	0.001153
1.232077	0.000211
1.258291	0.000252
1.284506	0.000985
1.310720	-0.000122
1.336934	0.000292
1.363149	-0.001026
1.389363	0.000753
1.415578	0.001243
1.441792	-0.000373
1.468006	-0.000531
1.494221	0.000447
1.520435	-0.000914
1.546650	-0.000587
1.572864	0.000522
1.599078	-0.000369
1.625293	0.001201
1.651507	0.001006
1.677722	0.000577
1.730150	-0.000160
1.782579	-0.001121
1.835008	-0.000382
1.887437	-0.000683
1.939866	0.000311
1.992294	0.000297
2.044723	-0.000757
2.097152	-0.000244
2.149581	-0.000162
2.202010	0.000243
2.254438	0.000213
2.306867	0.001018
2.359296	0.000384
2.411725	9.448909E-5
2.464154	0.000490
2.516582	0.000541
2.569011	0.000149
2.621440	-0.000921
2.673869	-5.121921E-5
2.726298	-0.000128
2.778726	-9.036814E-5
2.831155	-0.000529
2.883584	0.001271
2.936013	0.000928
2.988442	-0.000358
3.040870	0.000701
3.093299	0.000959
3.145728	-0.001833
3.198157	-0.001134
3.250586	-0.000482
3.303015	-0.000905
3.355443	-0.000128
3.460301	0.000292
3.565158	0.001120
3.670016	0.001058
3.774873	-0.000439
3.879731	-0.000187
3.984589	0.000332
4.089447	-0.000437
4.194304	2.656162E-5
4.299161	0.000568
4.404019	-0.000597
4.508877	-0.000235
4.613734	0.000428
4.718592	-0.000160
4.823450	0.000302
4.928307	-0.000159
5.033165	0.000456
5.138022	0.000168
5.242880	-7.663871E-6
5.347738	-0.000369
5.452595	-0.000684
5.557453	-0.000271
5.662311	-0.000664
5.767168	5.451291E-5
5.872025	-0.000105
5.976883	0.000288
6.081741	-0.000576
6.186598	-0.000243
6.291456	-0.000410
6.396314	-0.000306
6.501171	0.000258
6.606029	-0.000279
6.710886	-0.000290
6.920601	-8.750279E-5
7.130317	-4.828762E-5
7.340032	0.000424
7.549747	-0.000347
7.759462	-0.000369
7.969178	-0.000475
8.178893	-0.000880
8.388608	-0.000436
8.598323	0.000458
8.808039	0.000278
9.017754	-0.000118
9.227468	0.000718
9.437184	-0.000364
9.646899	9.434953E-6
9.856614	0.000452
10.066330	-0.000610
10.276045	0.000354
10.485760	-0.000521
10.695476	-0.000621
10.905190	0.000387
11.114905	-0.000961
11.324621	3.199351E-5
11.534336	0.000344
11.744051	-0.000203
11.953767	0.000209
12.163482	0.001263
12.373197	2.078182E-5
12.582912	-0.000140
12.792627	0.000978
13.002342	-0.000596
13.212058	0.000865
13.421773	-3.288417E-5
13.841203	-2.757934E-5
14.260633	-0.000238
14.680064	-0.000441
15.099494	-0.000283
15.518925	-4.456679E-5
15.938355	0.001390
16.357786	0.000793
16.777216	-0.001194
17.196646	-0.001037
17.616077	0.000339
18.035507	0.001819
18.454937	0.000000
18.874369	NaN
19.293798	NaN
19.713228	NaN
20.132660	NaN
20.552090	NaN
20.971519	NaN
21.390951	NaN
21.810381	NaN
22.229811	NaN
22.649242	NaN
23.068672	NaN
23.488102	NaN
23.907534	NaN
24.326963	NaN
24.746393	NaN
25.165825	NaN
25.585255	NaN
26.004684	NaN
26.424116	NaN
26.843546	NaN
27.682405	NaN
28.521267	NaN
29.360128	NaN
30.198988	NaN
31.037849	NaN
31.876711	NaN
32.715572	NaN
33.554432	NaN
34.393291	NaN
35.232155	NaN
36.071014	NaN
36.909874	NaN
37.748737	NaN
38.587597	NaN
39.426456	NaN
40.265320	NaN
41.104179	NaN
41.943039	NaN
42.781902	NaN
43.620762	NaN
44.459621	NaN
45.298485	NaN
46.137344	NaN
46.976204	NaN
47.815067	NaN
48.653927	NaN
49.492786	NaN
50.331650	NaN
51.170509	NaN
52.009369	NaN
52.848232	NaN
53.687092	NaN
55.364811	NaN
57.042534	NaN
58.720257	NaN
60.397976	NaN
62.075699	NaN
63.753422	NaN
65.431145	NaN
67.108864	NaN
68.786583	NaN
70.464310	NaN
72.142029	NaN
73.819748	NaN
75.497475	NaN
77.175194	NaN
78.852913	NaN
80.530640	NaN
82.208359	NaN
83.886078	NaN
85.563805	NaN
87.241524	NaN
88.919243	NaN
90.596970	NaN
92.274689	NaN
93.952408	NaN
95.630135	NaN
97.307854	NaN
98.985573	NaN
100.663300	NaN
102.341019	NaN
104.018738	NaN
105.696465	NaN
107.374184	NaN
110.729622	NaN
114.085068	NaN
117.440514	NaN
120.795952	NaN
124.151398	NaN
127.506844	NaN
130.862289	NaN
134.217728	NaN
137.573166	NaN
140.928619	NaN
144.284058	NaN
147.639496	NaN
150.994949	NaN
154.350388	NaN
157.705826	NaN
161.061279	NaN
164.416718	NaN
167.772156	NaN
171.127609	NaN
174.483047	NaN
177.838486	NaN
181.193939	NaN
184.549377	NaN
187.904816	NaN
191.260269	NaN
194.615707	NaN
197.971146	NaN
201.326599	NaN
204.682037	NaN
208.037476	NaN
211.392929	NaN
214.748367	NaN
221.459244	NaN
228.170135	NaN
234.881027	NaN
241.591904	NaN
248.302795	NaN
255.013687	NaN
261.724579	NaN
268.435455	NaN
275.146332	NaN
281.857239	NaN
288.568115	NaN
295.278992	NaN
301.989899	NaN
308.700775	NaN
315.411652	NaN
322.122559	NaN
328.833435	NaN
335.544312	NaN
342.255219	NaN
348.966095	NaN
355.676971	NaN
362.387878	NaN
369.098755	NaN
375.809631	NaN
382.520538	NaN
389.231415	NaN
395.942291	NaN
402.653198	NaN
409.364075	NaN
416.074951	NaN
422.785858	NaN
429.496735	NaN
442.918488	NaN
456.340271	NaN
469.762054	NaN
483.183807	NaN
496.605591	NaN
510.027374	NaN
523.449158	NaN
536.870911	NaN
550.292664	NaN
563.714478	NaN
577.136230	NaN
590.557983	NaN
603.979797	NaN
617.401550	NaN
630.823303	NaN
644.245117	NaN
657.666870	NaN
671.088623	NaN
684.510437	NaN
697.932190	NaN
711.353943	NaN
724.775757	NaN
738.197510	NaN
751.619263	NaN
765.041077	NaN
778.462830	NaN
791.884583	NaN
805.306396	NaN
818.728149	NaN
832.149902	NaN
845.571716	NaN
858.993469	NaN
885.836975	NaN
912.680542	NaN
939.524109	NaN
966.367615	NaN
993.211182	NaN
1020.054749	NaN
1046.898315	NaN
1073.741821	NaN
1100.585327	NaN
1127.428955	NaN
1154.272461	NaN
1181.115967	NaN
1207.959595	NaN
1234.803101	NaN
1261.646606	NaN
1288.490234	NaN
1315.333740	NaN
1342.177246	NaN
1369.020874	NaN
1395.864380	NaN
1422.707886	NaN
1449.551514	NaN
1476.395020	NaN
1503.238525	NaN
1530.082153	NaN
1556.925659	NaN
1583.769165	NaN
1610.612793	NaN
1637.456299	NaN
1664.299805	NaN
1691.143433	NaN
1717.986938	NaN
1771.673950	NaN
1825.361084	NaN
1879.048218	NaN
1932.735229	NaN
1986.422363	NaN
2040.109497	NaN
2093.796631	NaN
2147.483643	NaN
2201.170654	NaN
2254.857910	NaN
2308.544922	NaN
2362.231934	NaN
2415.919189	NaN
2469.606201	NaN
2523.293213	NaN
2576.980469	NaN
2630.667480	NaN
2684.354492	NaN
2738.041748	NaN
2791.728760	NaN
2845.415771	NaN
2899.103027	NaN
2952.790039	NaN
3006.477051	NaN
3060.164307	NaN
3113.851318	NaN
3167.538330	NaN
3221.225586	NaN
3274.912598	NaN
3328.599609	NaN
3382.286865	NaN
3435.973877	NaN
0.000000	NaN
0.000000	NaN
0.000000	NaN
0.000000	NaN
0.000000	NaN
0.000000	NaN
0.000000	NaN
0.000000	NaN
0.000000	NaN
0.000000	NaN
0.000000	NaN
0.000000	NaN
0.000000	NaN
0.000000	NaN
0.000000	NaN
0.000000	NaN
0.000000	NaN
0.000000	NaN
0.000000	NaN
0.000000	NaN
0.000000	NaN
0.000000	NaN
0.000000	NaN
0.000000	NaN
0.000000	NaN
0.000000	NaN
0.000000	NaN
0.000000	NaN
0.000000	NaN
0.000000	NaN
0.000000	NaN
0.000000	NaN

Count Rate History (KHz)  CR CHA / CR CHB
0.000000	65.584183	65.031052
0.104858	71.516037	71.821213
0.209715	77.590942	81.920624
0.314573	65.746307	63.276291
0.419430	60.119629	57.735443
0.524288	61.635971	61.292648
0.629146	71.239471	70.610046
0.734003	69.208145	67.386627
0.838861	68.349838	66.051483
0.943718	59.041977	58.107376
1.048576	70.610046	70.829391
1.153434	68.073273	67.462921
1.258291	67.472458	69.284439
1.363149	75.206757	73.862076
1.468006	65.107346	64.535141
1.572864	70.590973	71.687698
1.677722	67.310333	66.709518
1.782579	87.375641	91.552734
1.887437	81.167221	80.738068
1.992294	64.373016	61.750412
2.097152	71.229935	70.447922
2.202010	63.238144	65.155029
2.306867	69.742203	71.077347
2.411725	70.199966	68.550110
2.516582	62.522888	62.818527
2.621440	67.443848	66.709518
2.726298	62.904358	61.340332
2.831155	61.044693	60.758591
2.936013	67.787170	64.678192
3.040870	72.269440	72.412491
3.145728	69.799423	71.344376
3.250586	71.811676	71.077347
3.355443	66.881180	62.799454
3.460301	72.193146	69.656372
3.565158	64.859390	63.676834
3.670016	67.148209	65.517426
3.774874	65.355301	67.892075
3.879731	67.081451	67.863464
3.984589	57.897568	56.715012
4.089446	67.501068	65.813065
4.194304	55.532455	57.058334
4.299162	73.585510	71.325302
4.404019	60.815811	62.179565
4.508877	63.314438	65.355301
4.613734	68.473816	67.005157
4.718592	72.917938	74.148178
4.823450	73.032379	72.050095
4.928307	65.307617	63.314438
5.033165	60.014725	58.593750
5.138022	71.401596	68.902969
5.242880	63.819885	62.789917
5.347738	69.704056	69.046021
5.452595	68.893433	68.788528
5.557453	74.710846	75.473785
5.662310	67.424774	68.683624
5.767168	67.443848	67.358017
5.872026	67.682266	65.536499
5.976883	67.453384	67.481995
6.081741	71.210861	71.163177
6.186598	69.561005	71.554184
6.291456	65.631866	61.492920
6.396314	61.435699	60.930252
6.501171	55.713654	55.294037
6.606029	70.352554	71.592331
6.710886	61.264038	61.321259
6.815744	64.916611	63.695908
6.920602	71.363449	72.946548
7.025459	68.998337	69.065094
7.130317	68.578720	66.862106
7.235174	62.437057	63.018799
7.340032	63.924789	67.682266
7.444890	62.990189	60.882568
7.549747	74.338913	73.680878
7.654605	61.597824	60.949326
7.759462	63.209534	62.818527
7.864320	59.099197	58.984756
7.969178	61.273575	60.119629
8.074035	66.595078	66.452026
8.178893	63.953400	64.830780
8.283750	67.043304	65.670013
8.388608	63.829422	67.062378
8.493466	75.082779	71.926117
8.598323	63.772202	63.114166
8.703181	67.768097	65.259933
8.808038	63.600540	59.499741
8.912896	68.397522	70.171356
9.017754	73.080063	68.540573
9.122611	63.104630	61.483383
9.227469	65.450668	61.225891
9.332326	61.492920	58.441162
9.437184	59.738159	61.883926
9.542042	63.819885	62.904358
9.646899	71.105957	71.401596
9.751757	61.368942	60.310364
9.856614	66.623688	66.976547
9.961472	65.355301	63.152313
10.066330	56.972504	58.374405
10.171187	69.818497	64.573288
10.276045	61.378479	59.795380
10.380902	73.442459	71.649551
10.485760	69.961548	68.645477
10.590618	75.206757	74.157715
10.695475	63.190460	61.416626
10.800333	67.653656	67.081451
10.905190	74.815750	74.300766
11.010048	66.337585	68.874359
11.114906	68.521500	65.536499
11.219763	69.589615	67.749023
11.324621	60.920715	61.788559
11.429478	62.828064	61.054230
11.534336	71.868896	72.326660
11.639194	62.332153	62.017441
11.744051	64.868927	60.958862
11.848909	62.122345	61.864853
11.953766	64.344406	65.145493
12.058624	73.623657	72.994232
12.163482	72.278976	76.370239
12.268339	66.719055	64.868927
12.373197	63.858032	62.341690
12.478054	62.026978	60.014725
12.582912	64.582825	63.962936
12.687770	63.247681	67.386627
12.792627	71.306229	70.018768
12.897485	60.806274	58.584213
13.002342	53.081512	55.227280
13.107200	72.240829	73.795319
13.212058	71.496964	72.240829
13.316915	68.206787	64.649582
13.421773	73.251724	71.096420
13.526630	79.307556	82.511902
13.631488	67.186356	62.398911
13.736346	60.186386	57.649612
13.841203	71.458817	73.108673
13.946061	64.916611	65.822601
14.050918	65.879822	66.576004
14.155776	66.099167	63.142776
14.260634	57.420731	58.374405
14.365491	65.326691	65.717697
14.470349	76.255798	75.845718
14.575206	70.924759	70.362091
14.680064	70.066452	68.988800
14.784922	71.830750	72.689056
14.889779	69.503784	70.362091
14.994637	63.486099	63.161850
15.099494	71.716309	70.686340
15.204352	65.088272	69.570541
15.309210	69.293976	64.811707
15.414067	66.595078	66.041946
15.518925	69.646835	69.036484
15.623782	70.362091	69.074631
15.728640	75.435638	76.065063
15.833498	61.626434	61.111450
15.938355	60.186386	58.994293
16.043213	69.808960	68.597794
16.148070	67.176819	66.967010
16.252928	63.323975	63.219070
16.357786	68.702698	68.540573
16.462643	60.539246	57.353973
16.567501	59.728622	61.359406
16.672358	59.499741	61.283112
16.777216	71.496964	73.051453
16.882074	66.041946	64.573288
16.986931	63.228607	60.577393
17.091789	67.186356	66.223145
17.196646	65.364838	68.902969
17.301504	56.581497	54.349899
17.406362	75.206757	74.071884
17.511219	68.998337	68.950653
17.616077	67.176819	67.739487
17.720934	67.672729	67.367554
17.825792	70.648193	72.183609
17.930650	67.453384	68.912506
18.035507	70.066452	67.644119
18.140365	68.035126	69.913864
18.245222	74.176788	75.273514
18.350080	68.473816	67.310333
18.454938	65.402985	66.165924
18.559795	65.050125	63.581467
18.664653	60.892105	59.328079
18.769510	63.381195	61.397552
18.874368	63.591003	64.363480
18.979226	60.262680	60.338974
19.084083	66.242218	65.879822
19.188941	72.135925	70.638657
19.293798	61.740875	59.480667
