1/9/2026	10:31 AM
Pseudo Cross Correlation
Scattering angle:	90.0
Duration (s):	20
Wavelength (nm):	632.8
Refractive index:	1.330
Viscosity (mPas):	0.773
Temperature (K):	304.6
Laser intensity (mW):	8.513031
Average Count rate  A (kHz):	66.0
Average Count rate  B (kHz):	66.3
Intercept:	0.8713
Cumulant 1st	112.41
Cumulant 2nd	106.64	25.87
Cumulant 3rd	105.88	29.81

Lag time (s)         g2-1
1.250000E-8	0.882761
2.500000E-8	0.883684
3.750000E-8	0.820956
5.000000E-8	0.863389
6.250000E-8	0.851397
7.500000E-8	0.830180
8.750000E-8	0.887374
1.000000E-7	0.881839
1.125000E-7	0.852320
1.250000E-7	0.863389
1.375000E-7	0.874459
1.500000E-7	0.849552
1.625000E-7	0.848630
1.750000E-7	0.896598
1.875000E-7	0.915970
2.000000E-7	0.946412
2.125000E-7	0.836638
2.250000E-7	0.857854
2.375000E-7	0.927962
2.500000E-7	0.892908
2.625000E-7	0.848630
2.750000E-7	0.903978
2.875000E-7	0.891063
3.000000E-7	0.903978
3.125000E-7	0.933497
3.250000E-7	0.897521
3.375000E-7	0.917815
3.500000E-7	0.841250
3.625000E-7	0.891063
3.750000E-7	0.843095
3.875000E-7	0.868002
4.000000E-7	0.884606
4.125000E-7	0.841250
4.250000E-7	0.773910
4.375000E-7	0.869847
4.500000E-7	0.856010
4.625000E-7	0.965783
4.750000E-7	0.879071
4.875000E-7	0.879071
5.000000E-7	0.817266
5.125000E-7	0.841250
5.250000E-7	0.789592
5.375000E-7	0.863389
5.500000E-7	0.932575
5.625000E-7	0.939032
5.750000E-7	0.848630
5.875000E-7	0.788669
6.000000E-7	0.894753
6.125000E-7	0.800661
6.250000E-7	0.878149
6.375000E-7	0.892908
6.500000E-7	0.804351
6.625000E-7	0.852320
6.750000E-7	0.833870
6.875000E-7	0.871692
7.000000E-7	0.753615
7.125000E-7	0.876304
7.250000E-7	0.925195
7.375000E-7	0.831103
7.500000E-7	0.956559
7.625000E-7	0.915970
7.750000E-7	0.882761
7.875000E-7	0.845862
8.000000E-7	0.817266
8.250000E-7	0.879994
8.500000E-7	0.868924
8.750000E-7	0.897060
9.000000E-7	0.911358
9.250000E-7	0.884606
9.500000E-7	0.847246
9.750000E-7	0.871230
1.000000E-6	0.862006
1.025000E-6	0.948718
1.050000E-6	0.860622
1.075000E-6	0.863389
1.100000E-6	0.872153
1.125000E-6	0.884145
1.150000E-6	0.892908
1.175000E-6	0.873075
1.200000E-6	0.856471
1.225000E-6	0.865695
1.250000E-6	0.876304
1.275000E-6	0.891063
1.300000E-6	0.829719
1.325000E-6	0.885529
1.350000E-6	0.864773
1.375000E-6	0.909052
1.400000E-6	0.867079
1.425000E-6	0.885067
1.450000E-6	0.904900
1.475000E-6	0.851397
1.500000E-6	0.840328
1.525000E-6	0.847707
1.550000E-6	0.839405
1.575000E-6	0.864773
1.600000E-6	0.885529
1.650000E-6	0.895906
1.700000E-6	0.835715
1.750000E-6	0.872845
1.800000E-6	0.884376
1.850000E-6	0.862467
1.900000E-6	0.857163
1.950000E-6	0.894523
2.000000E-6	0.900057
2.050000E-6	0.864542
2.100000E-6	0.853473
2.150000E-6	0.850475
2.200000E-6	0.845632
2.250000E-6	0.851628
2.300000E-6	0.870308
2.350000E-6	0.879994
2.400000E-6	0.894292
2.450000E-6	0.855087
2.500000E-6	0.851858
2.550000E-6	0.881377
2.600000E-6	0.882992
2.650000E-6	0.900288
2.700000E-6	0.874228
2.750000E-6	0.877688
2.800000E-6	0.837560
2.850000E-6	0.851167
2.900000E-6	0.865234
2.950000E-6	0.882761
3.000000E-6	0.838483
3.050000E-6	0.881147
3.100000E-6	0.902825
3.150000E-6	0.914356
3.200000E-6	0.841250
3.300000E-6	0.871922
3.400000E-6	0.869270
3.500000E-6	0.862467
3.600000E-6	0.844709
3.700000E-6	0.874805
3.800000E-6	0.832602
3.900000E-6	0.861544
4.000000E-6	0.866733
4.100000E-6	0.876073
4.200000E-6	0.868463
4.300000E-6	0.870769
4.400000E-6	0.881954
4.500000E-6	0.851512
4.600000E-6	0.862582
4.700000E-6	0.852204
4.800000E-6	0.857854
4.900000E-6	0.868348
5.000000E-6	0.855779
5.100000E-6	0.843556
5.200000E-6	0.863274
5.300000E-6	0.856471
5.400000E-6	0.846670
5.500000E-6	0.863966
5.600000E-6	0.861890
5.700000E-6	0.843556
5.800000E-6	0.876419
5.900000E-6	0.839059
6.000000E-6	0.886336
6.100000E-6	0.842288
6.200000E-6	0.854280
6.300000E-6	0.871461
6.400000E-6	0.883107
6.600000E-6	0.870135
6.800000E-6	0.853242
7.000000E-6	0.851167
7.200000E-6	0.879360
7.400000E-6	0.866387
7.600000E-6	0.860795
7.800000E-6	0.874286
8.000000E-6	0.847534
8.200000E-6	0.859181
8.400000E-6	0.880167
8.600000E-6	0.858027
8.800000E-6	0.861602
9.000000E-6	0.848169
9.200000E-6	0.865753
9.400000E-6	0.882185
9.600000E-6	0.848860
9.800000E-6	0.855837
1.000000E-5	0.834966
1.020000E-5	0.856932
1.040000E-5	0.860853
1.060000E-5	0.849091
1.080000E-5	0.858200
1.100000E-5	0.870769
1.120000E-5	0.846381
1.140000E-5	0.858489
1.160000E-5	0.852320
1.180000E-5	0.855491
1.200000E-5	0.860853
1.220000E-5	0.847304
1.240000E-5	0.862870
1.260000E-5	0.836176
1.280000E-5	0.840616
1.320000E-5	0.849149
1.360000E-5	0.842000
1.400000E-5	0.832544
1.440000E-5	0.844450
1.480000E-5	0.841452
1.520000E-5	0.838627
1.560000E-5	0.840616
1.600000E-5	0.857192
1.640000E-5	0.846871
1.680000E-5	0.857970
1.720000E-5	0.852694
1.760000E-5	0.844450
1.800000E-5	0.837128
1.840000E-5	0.837416
1.880000E-5	0.844450
1.920000E-5	0.830469
1.960000E-5	0.842605
2.000000E-5	0.840126
2.040000E-5	0.834620
2.080000E-5	0.826923
2.120000E-5	0.834274
2.160000E-5	0.859959
2.200000E-5	0.839549
2.240000E-5	0.839002
2.280000E-5	0.832746
2.320000E-5	0.822858
2.360000E-5	0.827990
2.400000E-5	0.838021
2.440000E-5	0.836695
2.480000E-5	0.845372
2.520000E-5	0.826231
2.560000E-5	0.831074
2.640000E-5	0.818606
2.720000E-5	0.823406
2.800000E-5	0.823810
2.880000E-5	0.817237
2.960000E-5	0.821993
3.040000E-5	0.823219
3.120000E-5	0.822858
3.200000E-5	0.826101
3.280000E-5	0.813807
3.360000E-5	0.815017
3.440000E-5	0.808430
3.520000E-5	0.819442
3.600000E-5	0.811515
3.680000E-5	0.813489
3.760000E-5	0.810664
3.840000E-5	0.799076
3.920000E-5	0.806600
4.000000E-5	0.801396
4.080000E-5	0.800705
4.160000E-5	0.800157
4.240000E-5	0.804222
4.320000E-5	0.795746
4.400000E-5	0.796784
4.480000E-5	0.806600
4.560000E-5	0.796481
4.640000E-5	0.796251
4.720000E-5	0.796438
4.800000E-5	0.794536
4.880000E-5	0.793094
4.960000E-5	0.788986
5.040000E-5	0.790860
5.120000E-5	0.780857
5.280000E-5	0.792240
5.440000E-5	0.784017
5.600000E-5	0.782482
5.760000E-5	0.780997
5.920000E-5	0.775412
6.080000E-5	0.776161
6.240000E-5	0.771145
6.400000E-5	0.772443
6.560000E-5	0.768760
6.720000E-5	0.768623
6.880000E-5	0.755600
7.040000E-5	0.762692
7.200000E-5	0.761921
7.360000E-5	0.757193
7.520000E-5	0.759730
7.680000E-5	0.747053
7.840000E-5	0.751283
8.000000E-5	0.743291
8.160000E-5	0.745028
8.320000E-5	0.745316
8.480000E-5	0.737799
8.640000E-5	0.740329
8.800000E-5	0.737798
8.960000E-5	0.737084
9.120000E-5	0.729971
9.280000E-5	0.733308
9.440000E-5	0.726764
9.600000E-5	0.731521
9.760000E-5	0.725647
9.920000E-5	0.728170
0.000101	0.721662
0.000102	0.715687
0.000106	0.714789
0.000109	0.711070
0.000112	0.704469
0.000115	0.698170
0.000118	0.695219
0.000122	0.694898
0.000125	0.688574
0.000128	0.684646
0.000131	0.675522
0.000134	0.670960
0.000138	0.678012
0.000141	0.672384
0.000144	0.667306
0.000147	0.661509
0.000150	0.657992
0.000154	0.651681
0.000157	0.648314
0.000160	0.645831
0.000163	0.641932
0.000166	0.637021
0.000170	0.631183
0.000173	0.631313
0.000176	0.622917
0.000179	0.621528
0.000182	0.622506
0.000186	0.616279
0.000189	0.611764
0.000192	0.609689
0.000195	0.599977
0.000198	0.599145
0.000202	0.596951
0.000205	0.593693
0.000211	0.586672
0.000218	0.581706
0.000224	0.574713
0.000230	0.568682
0.000237	0.559097
0.000243	0.554573
0.000250	0.546727
0.000256	0.542731
0.000262	0.534270
0.000269	0.531063
0.000275	0.522345
0.000282	0.518954
0.000288	0.512099
0.000294	0.504292
0.000301	0.499361
0.000307	0.493164
0.000314	0.485616
0.000320	0.484074
0.000326	0.474510
0.000333	0.472643
0.000339	0.464082
0.000346	0.462419
0.000352	0.453647
0.000358	0.445300
0.000365	0.442788
0.000371	0.439799
0.000378	0.435050
0.000384	0.427948
0.000390	0.426735
0.000397	0.420426
0.000403	0.415711
0.000410	0.410017
0.000422	0.401555
0.000435	0.389997
0.000448	0.381332
0.000461	0.375360
0.000474	0.365607
0.000486	0.357836
0.000499	0.348070
0.000512	0.339656
0.000525	0.333252
0.000538	0.325606
0.000550	0.317454
0.000563	0.310640
0.000576	0.304135
0.000589	0.295269
0.000602	0.290896
0.000614	0.281949
0.000627	0.279709
0.000640	0.270457
0.000653	0.263731
0.000666	0.260027
0.000678	0.251085
0.000691	0.246029
0.000704	0.242245
0.000717	0.236383
0.000730	0.231754
0.000742	0.225905
0.000755	0.222247
0.000768	0.217573
0.000781	0.211949
0.000794	0.209182
0.000806	0.203170
0.000819	0.200524
0.000845	0.191410
0.000870	0.183714
0.000896	0.174728
0.000922	0.167626
0.000947	0.160457
0.000973	0.154651
0.000998	0.147816
0.001024	0.140825
0.001050	0.135784
0.001075	0.128741
0.001101	0.125104
0.001126	0.118916
0.001152	0.113630
0.001178	0.109268
0.001203	0.103825
0.001229	0.098497
0.001254	0.095635
0.001280	0.092132
0.001306	0.087563
0.001331	0.085060
0.001357	0.079774
0.001382	0.076180
0.001408	0.072786
0.001434	0.069740
0.001459	0.066057
0.001485	0.064517
0.001510	0.062386
0.001536	0.058870
0.001562	0.055674
0.001587	0.052235
0.001613	0.050262
0.001638	0.048263
0.001690	0.043969
0.001741	0.039625
0.001792	0.036576
0.001843	0.034624
0.001894	0.031634
0.001946	0.031146
0.001997	0.030303
0.002048	0.028267
0.002099	0.027366
0.002150	0.025783
0.002202	0.023627
0.002253	0.022944
0.002304	0.023015
0.002355	0.021286
0.002406	0.019546
0.002458	0.018069
0.002509	0.017082
0.002560	0.016111
0.002611	0.016473
0.002662	0.016267
0.002714	0.014667
0.002765	0.014758
0.002816	0.015067
0.002867	0.014538
0.002918	0.013856
0.002970	0.014670
0.003021	0.014223
0.003072	0.014849
0.003123	0.014052
0.003174	0.015166
0.003226	0.013537
0.003277	0.012387
0.003379	0.011832
0.003482	0.011077
0.003584	0.010289
0.003686	0.009818
0.003789	0.011380
0.003891	0.011990
0.003994	0.011639
0.004096	0.011910
0.004198	0.013184
0.004301	0.012682
0.004403	0.011520
0.004506	0.010523
0.004608	0.011077
0.004710	0.011489
0.004813	0.010370
0.004915	0.010894
0.005018	0.007714
0.005120	0.006749
0.005222	0.007093
0.005325	0.005661
0.005427	0.006021
0.005530	0.006774
0.005632	0.007121
0.005734	0.007484
0.005837	0.008665
0.005939	0.006928
0.006042	0.006962
0.006144	0.005933
0.006246	0.006015
0.006349	0.005629
0.006451	0.006543
0.006554	0.008106
0.006758	0.008931
0.006963	0.010743
0.007168	0.010976
0.007373	0.012061
0.007578	0.008957
0.007782	0.005967
0.007987	0.004662
0.008192	0.005629
0.008397	0.008112
0.008602	0.006628
0.008806	0.005426
0.009011	0.006750
0.009216	0.009919
0.009421	0.010581
0.009626	0.009639
0.009830	0.008020
0.010035	0.006384
0.010240	0.006897
0.010445	0.006274
0.010650	0.005863
0.010854	0.003540
0.011059	0.001553
0.011264	0.000387
0.011469	-0.000546
0.011674	-0.001682
0.011878	-0.002954
0.012083	-0.003425
0.012288	-0.001400
0.012493	0.000366
0.012698	0.001265
0.012902	0.004966
0.013107	0.007929
0.013517	0.008368
0.013926	0.008150
0.014336	0.005066
0.014746	0.006136
0.015155	0.007091
0.015565	0.002035
0.015974	0.001036
0.016384	0.002251
0.016794	0.005735
0.017203	0.007843
0.017613	0.007467
0.018022	0.006041
0.018432	0.001998
0.018842	0.003059
0.019251	0.004007
0.019661	0.001435
0.020070	0.001637
0.020480	0.004161
0.020890	0.002992
0.021299	0.002991
0.021709	0.004127
0.022118	0.005956
0.022528	0.009529
0.022938	0.007405
0.023347	0.007905
0.023757	0.013246
0.024166	0.012414
0.024576	0.010272
0.024986	0.006201
0.025395	0.001371
0.025805	0.001468
0.026214	0.003836
0.027034	-0.002190
0.027853	0.001837
0.028672	0.004540
0.029491	0.002761
0.030310	0.000687
0.031130	0.000985
0.031949	-0.003444
0.032768	-0.002528
0.033587	-0.000335
0.034406	0.002623
0.035226	-0.001029
0.036045	-0.000862
0.036864	-0.001457
0.037683	-0.001231
0.038502	0.000799
0.039322	0.005338
0.040141	0.006413
0.040960	0.005622
0.041779	0.001199
0.042598	0.001038
0.043418	-0.000471
0.044237	0.001026
0.045056	0.004548
0.045875	0.002678
0.046694	0.000504
0.047514	0.002436
0.048333	0.001077
0.049152	-0.001137
0.049971	0.000344
0.050790	0.001732
0.051610	0.000264
0.052429	-0.000974
0.054067	-0.003219
0.055706	0.003482
0.057344	0.002866
0.058982	0.003258
0.060621	0.007388
0.062259	0.000860
0.063898	0.001880
0.065536	-0.003451
0.067174	-0.000223
0.068813	0.002983
0.070451	0.005787
0.072090	0.003493
0.073728	0.005984
0.075366	0.004826
0.077005	-0.004750
0.078643	-0.005020
0.080282	-0.000353
0.081920	-0.000981
0.083558	0.007793
0.085197	0.006575
0.086835	-0.000552
0.088474	0.001781
0.090112	0.010249
0.091750	0.009409
0.093389	0.004270
0.095027	0.000704
0.096666	-0.004663
0.098304	0.002478
0.099942	0.007862
0.101581	0.001334
0.103219	-0.002596
0.104858	-0.001748
0.108134	-0.002414
0.111411	-0.002093
0.114688	0.004502
0.117965	0.005652
0.121242	0.004278
0.124518	0.002223
0.127795	0.001674
0.131072	0.008053
0.134349	-0.002580
0.137626	0.001769
0.140902	0.001121
0.144179	0.004817
0.147456	0.004134
0.150733	0.006305
0.154010	0.004253
0.157286	0.006346
0.160563	-0.000981
0.163840	-0.000239
0.167117	0.000729
0.170394	0.002520
0.173670	0.002257
0.176947	-0.000975
0.180224	-0.001927
0.183501	-0.000231
0.186778	-0.003102
0.190054	-0.002811
0.193331	0.002093
0.196608	0.004881
0.199885	0.006629
0.203162	0.005625
0.206438	-0.001757
0.209715	0.000367
0.216269	0.004968
0.222822	0.007112
0.229376	0.000149
0.235930	0.002608
0.242483	-0.000423
0.249037	0.003043
0.255590	0.000944
0.262144	0.006672
0.268698	0.001216
0.275251	0.007357
0.281805	0.001251
0.288358	0.003000
0.294912	-0.000838
0.301466	-0.002952
0.308019	0.001174
0.314573	-5.086216E-5
0.321126	0.002207
0.327680	0.000318
0.334234	-0.003757
0.340787	-0.002730
0.347341	0.000952
0.353894	-6.772807E-6
0.360448	0.001265
0.367002	0.000851
0.373555	-0.001735
0.380109	-0.003037
0.386662	-0.004410
0.393216	-0.000635
0.399770	-0.008222
0.406323	-0.005377
0.412877	-0.001034
0.419430	-0.001096
0.432538	-0.002055
0.445645	-0.001309
0.458752	0.001224
0.471859	0.004085
0.484966	0.000949
0.498074	0.001844
0.511181	0.000728
0.524288	-0.001319
0.537395	0.001718
0.550502	-0.001794
0.563610	-0.001312
0.576717	-0.002051
0.589824	-0.001136
0.602931	-0.000857
0.616038	-0.003094
0.629146	-0.001338
0.642253	0.000151
0.655360	-0.006356
0.668467	-0.000966
0.681574	0.000392
0.694682	0.002256
0.707789	0.002553
0.720896	0.000481
0.734003	0.000262
0.747110	0.000820
0.760218	0.002573
0.773325	-0.000545
0.786432	-0.000949
0.799539	0.001191
0.812646	0.000743
0.825754	0.000455
0.838861	0.004448
0.865075	-0.002488
0.891290	0.001128
0.917504	-0.001667
0.943718	0.002892
0.969933	0.002218
0.996147	0.001390
1.022362	0.002355
1.048576	-0.000546
1.074790	-0.001661
1.101005	-0.000487
1.127219	0.000706
1.153434	0.000615
1.179648	0.001614
1.205862	-0.000336
1.232077	0.001900
1.258291	0.001165
1.284506	0.000189
1.310720	0.001289
1.336934	-0.001732
1.363149	-0.000431
1.389363	0.003819
1.415578	-0.001805
1.441792	-0.001002
1.468006	0.000172
1.494221	0.000695
1.520435	0.000137
1.546650	0.001139
1.572864	0.000572
1.599078	-0.001375
1.625293	-0.000726
1.651507	0.002210
1.677722	0.002677
1.730150	0.000936
1.782579	0.001418
1.835008	0.000879
1.887437	-0.001701
1.939866	0.000922
1.992294	0.001819
2.044723	-0.002283
2.097152	-0.000625
2.149581	-0.001812
2.202010	-0.001568
2.254438	0.001181
2.306867	-0.000260
2.359296	-0.000707
2.411725	-0.000710
2.464154	0.000609
2.516582	0.000617
2.569011	-0.000551
2.621440	0.000978
2.673869	0.000357
2.726298	-0.000642
2.778726	0.001664
2.831155	-0.001066
2.883584	-0.000346
2.936013	-0.000693
2.988442	8.819923E-5
3.040870	-0.000630
3.093299	0.000366
3.145728	-0.002001
3.198157	0.000277
3.250586	-0.001409
3.303015	-0.001441
3.355443	0.000388
3.460301	0.000515
3.565158	-0.000837
3.670016	4.822934E-5
3.774873	-0.001406
3.879731	-0.000777
3.984589	0.000544
4.089447	-0.000791
4.194304	0.001880
4.299161	0.001106
4.404019	-0.000307
4.508877	0.000277
4.613734	-0.000501
4.718592	-0.001614
4.823450	-0.001559
4.928307	-0.002035
5.033165	-0.000748
5.138022	-0.000533
5.242880	0.000765
5.347738	0.000513
5.452595	0.000603
5.557453	7.895082E-5
5.662311	-0.000370
5.767168	3.121605E-5
5.872025	2.762675E-5
5.976883	0.001407
6.081741	0.001103
6.186598	0.001898
6.291456	0.001156
6.396314	-0.001644
6.501171	0.000462
6.606029	6.940380E-5
6.710886	-0.000719
6.920601	0.000440
7.130317	-0.000403
7.340032	-4.591885E-5
7.549747	-0.000767
7.759462	-0.000623
7.969178	0.000575
8.178893	0.000607
8.388608	-0.000589
8.598323	-0.002065
8.808039	-0.001363
9.017754	-0.000945
9.227468	-0.000378
9.437184	-0.001547
9.646899	-0.000793
9.856614	-0.001466
10.066330	0.000183
10.276045	7.702894E-5
10.485760	-0.001220
10.695476	-0.000964
10.905190	-0.000358
11.114905	-0.000717
11.324621	-0.000488
11.534336	-0.000598
11.744051	-0.000301
11.953767	-0.000460
12.163482	-0.000369
12.373197	0.001928
12.582912	0.000771
12.792627	-0.001286
13.002342	-0.001681
13.212058	-0.002430
13.421773	0.001138
13.841203	0.000999
14.260633	-0.000678
14.680064	-0.000123
15.099494	-4.014072E-5
15.518925	-0.002876
15.938355	-0.000250
16.357786	0.001273
16.777216	-0.000616
17.196646	-0.000624
17.616077	0.002698
18.035507	0.004215
18.454937	-0.000542
18.874369	0.000000
19.293798	NaN
19.713228	NaN
20.132660	NaN
20.552090	NaN
20.971519	NaN
21.390951	NaN
21.810381	NaN
22.229811	NaN
22.649242	NaN
23.068672	NaN
23.488102	NaN
23.907534	NaN
24.326963	NaN
24.746393	NaN
25.165825	NaN
25.585255	NaN
26.004684	NaN
26.424116	NaN
26.843546	NaN
27.682405	NaN
28.521267	NaN
29.360128	NaN
30.198988	NaN
31.037849	NaN
31.876711	NaN
32.715572	NaN
33.554432	NaN
34.393291	NaN
35.232155	NaN
36.071014	NaN
36.909874	NaN
37.748737	NaN
38.587597	NaN
39.426456	NaN
40.265320	NaN
41.104179	NaN
41.943039	NaN
42.781902	NaN
43.620762	NaN
44.459621	NaN
45.298485	NaN
46.137344	NaN
46.976204	NaN
47.815067	NaN
48.653927	NaN
49.492786	NaN
50.331650	NaN
51.170509	NaN
52.009369	NaN
52.848232	NaN
53.687092	NaN
55.364811	NaN
57.042534	NaN
58.720257	NaN
60.397976	NaN
62.075699	NaN
63.753422	NaN
65.431145	NaN
67.108864	NaN
68.786583	NaN
70.464310	NaN
72.142029	NaN
73.819748	NaN
75.497475	NaN
77.175194	NaN
78.852913	NaN
80.530640	NaN
82.208359	NaN
83.886078	NaN
85.563805	NaN
87.241524	NaN
88.919243	NaN
90.596970	NaN
92.274689	NaN
93.952408	NaN
95.630135	NaN
97.307854	NaN
98.985573	NaN
100.663300	NaN
102.341019	NaN
104.018738	NaN
105.696465	NaN
107.374184	NaN
110.729622	NaN
114.085068	NaN
117.440514	NaN
120.795952	NaN
124.151398	NaN
127.506844	NaN
130.862289	NaN
134.217728	NaN
137.573166	NaN
140.928619	NaN
144.284058	NaN
147.639496	NaN
150.994949	NaN
154.350388	NaN
157.705826	NaN
161.061279	NaN
164.416718	NaN
167.772156	NaN
171.127609	NaN
174.483047	NaN
177.838486	NaN
181.193939	NaN
184.549377	NaN
187.904816	NaN
191.260269	NaN
194.615707	NaN
197.971146	NaN
201.326599	NaN
204.682037	NaN
208.037476	NaN
211.392929	NaN
214.748367	NaN
221.459244	NaN
228.170135	NaN
234.881027	NaN
241.591904	NaN
248.302795	NaN
255.013687	NaN
261.724579	NaN
268.435455	NaN
275.146332	NaN
281.857239	NaN
288.568115	NaN
295.278992	NaN
301.989899	NaN
308.700775	NaN
315.411652	NaN
322.122559	NaN
328.833435	NaN
335.544312	NaN
342.255219	NaN
348.966095	NaN
355.676971	NaN
362.387878	NaN
369.098755	NaN
375.809631	NaN
382.520538	NaN
389.231415	NaN
395.942291	NaN
402.653198	NaN
409.364075	NaN
416.074951	NaN
422.785858	NaN
429.496735	NaN
442.918488	NaN
456.340271	NaN
469.762054	NaN
483.183807	NaN
496.605591	NaN
510.027374	NaN
523.449158	NaN
536.870911	NaN
550.292664	NaN
563.714478	NaN
577.136230	NaN
590.557983	NaN
603.979797	NaN
617.401550	NaN
630.823303	NaN
644.245117	NaN
657.666870	NaN
671.088623	NaN
684.510437	NaN
697.932190	NaN
711.353943	NaN
724.775757	NaN
738.197510	NaN
751.619263	NaN
765.041077	NaN
778.462830	NaN
791.884583	NaN
805.306396	NaN
818.728149	NaN
832.149902	NaN
845.571716	NaN
858.993469	NaN
885.836975	NaN
912.680542	NaN
939.524109	NaN
966.367615	NaN
993.211182	NaN
1020.054749	NaN
1046.898315	NaN
1073.741821	NaN
1100.585327	NaN
1127.428955	NaN
1154.272461	NaN
1181.115967	NaN
1207.959595	NaN
1234.803101	NaN
1261.646606	NaN
1288.490234	NaN
1315.333740	NaN
1342.177246	NaN
1369.020874	NaN
1395.864380	NaN
1422.707886	NaN
1449.551514	NaN
1476.395020	NaN
1503.238525	NaN
1530.082153	NaN
1556.925659	NaN
1583.769165	NaN
1610.612793	NaN
1637.456299	NaN
1664.299805	NaN
1691.143433	NaN
1717.986938	NaN
1771.673950	NaN
1825.361084	NaN
1879.048218	NaN
1932.735229	NaN
1986.422363	NaN
2040.109497	NaN
2093.796631	NaN
2147.483643	NaN
2201.170654	NaN
2254.857910	NaN
2308.544922	NaN
2362.231934	NaN
2415.919189	NaN
2469.606201	NaN
2523.293213	NaN
2576.980469	NaN
2630.667480	NaN
2684.354492	NaN
2738.041748	NaN
2791.728760	NaN
2845.415771	NaN
2899.103027	NaN
2952.790039	NaN
3006.477051	NaN
3060.164307	NaN
3113.851318	NaN
3167.538330	NaN
3221.225586	NaN
3274.912598	NaN
3328.599609	NaN
3382.286865	NaN
3435.973877	NaN
0.000000	NaN
0.000000	NaN
0.000000	NaN
0.000000	NaN
0.000000	NaN
0.000000	NaN
0.000000	NaN
0.000000	NaN
0.000000	NaN
0.000000	NaN
0.000000	NaN
0.000000	NaN
0.000000	NaN
0.000000	NaN
0.000000	NaN
0.000000	NaN
0.000000	NaN
0.000000	NaN
0.000000	NaN
0.000000	NaN
0.000000	NaN
0.000000	NaN
0.000000	NaN
0.000000	NaN
0.000000	NaN
0.000000	NaN
0.000000	NaN
0.000000	NaN
0.000000	NaN
0.000000	NaN
0.000000	NaN
0.000000	NaN

Count Rate History (KHz)  CR CHA / CR CHB
0.000000	67.596436	71.725845
0.104858	66.728592	65.546036
0.209715	63.457489	62.122345
0.314573	70.724487	72.631836
0.419430	78.859329	78.544617
0.524288	69.141388	69.513321
0.629146	68.845749	67.710876
0.734003	58.698654	59.099197
0.838861	62.398911	63.533783
0.943718	56.152344	54.931641
1.048576	55.503845	56.467056
1.153434	60.100555	57.849884
1.258291	55.866241	53.491592
1.363149	57.926178	57.945251
1.468006	63.962936	63.323975
1.572864	58.803558	59.309006
1.677722	60.548782	60.262680
1.782579	69.456100	70.257187
1.887437	66.347122	68.454742
1.992294	61.206818	61.407089
2.097152	65.565109	64.611435
2.202010	63.886642	66.223145
2.306867	80.204010	79.517365
2.411725	63.924789	62.122345
2.516582	56.972504	56.285858
2.621440	59.165955	56.009293
2.726298	57.125092	55.656433
2.831155	67.596436	69.971085
2.936013	53.300858	53.834915
3.040870	61.798096	64.926147
3.145728	63.667297	58.860779
3.250586	68.302155	71.582794
3.355443	70.695877	73.118210
3.460301	80.623627	81.586838
3.565158	82.521439	84.028244
3.670016	62.818527	60.253143
3.774874	59.213638	58.603287
3.879731	70.323944	70.962906
3.984589	62.208176	59.690475
4.089446	57.229996	57.687759
4.194304	64.067841	67.596436
4.299162	68.435669	66.461563
4.404019	64.229965	63.056946
4.508877	84.066391	90.084076
4.613734	74.644089	75.912476
4.718592	72.641373	72.784424
4.823450	66.957474	65.040588
4.928307	63.610077	60.377121
5.033165	65.488815	68.330765
5.138022	68.931580	69.751740
5.242880	55.637360	56.505203
5.347738	60.958862	64.868927
5.452595	75.683594	74.110031
5.557453	69.046021	68.454742
5.662310	63.238144	65.011978
5.767168	72.765350	74.424744
5.872026	68.225861	68.702698
5.976883	69.904327	69.074631
6.081741	69.541931	67.644119
6.186598	77.037811	80.261230
6.291456	77.924728	76.427460
6.396314	65.422058	68.845749
6.501171	77.524185	73.461533
6.606029	57.821274	59.337616
6.710886	61.368942	61.502457
6.815744	54.407120	53.462982
6.920602	53.853989	54.559708
7.025459	66.595078	67.787170
7.130317	66.690445	63.371658
7.235174	73.289871	72.021484
7.340032	54.607391	54.988861
7.444890	64.439774	64.277649
7.549747	59.719086	61.168671
7.654605	60.691833	57.191849
7.759462	63.848495	63.219070
7.864320	75.035095	77.714920
7.969178	69.417953	71.582794
8.074035	71.554184	70.552826
8.178893	66.461563	66.833496
8.283750	63.905716	62.103271
8.388608	65.555573	65.622330
8.493466	73.499680	74.205399
8.598323	52.318573	54.092407
8.703181	74.138641	74.291229
8.808038	71.382523	70.590973
8.912896	64.296722	64.659119
9.017754	59.995651	59.070587
9.122611	60.253143	60.243607
9.227469	66.270828	66.642761
9.332326	62.665939	62.360764
9.437184	61.788559	60.548782
9.542042	62.971115	65.011978
9.646899	72.278976	81.844330
9.751757	71.821213	71.773529
9.856614	66.261292	67.214966
9.961472	71.706772	69.313049
10.066330	67.605972	68.359375
10.171187	67.968369	71.849823
10.276045	61.607361	61.626434
10.380902	63.810349	63.438416
10.485760	90.446472	93.154907
10.590618	68.168640	68.855286
10.695475	83.904266	83.150864
10.800333	63.867569	69.646835
10.905190	66.614151	61.664581
11.010048	68.712234	70.390701
11.114906	64.601898	65.984726
11.219763	67.005157	63.447952
11.324621	70.819855	70.476532
11.429478	74.691772	79.917908
11.534336	73.404312	71.868896
11.639194	80.718994	80.795288
11.744051	73.843002	78.411102
11.848909	66.757202	61.502457
11.953766	62.742233	61.683655
12.058624	61.483383	60.625076
12.163482	64.153671	66.347122
12.268339	65.479279	67.281723
12.373197	68.483353	69.608688
12.478054	72.593689	76.150894
12.582912	65.126419	64.325333
12.687770	78.001022	81.167221
12.792627	68.702698	69.303513
12.897485	59.728622	60.939789
13.002342	66.280365	67.729950
13.107200	68.483353	69.522858
13.212058	61.750412	61.082840
13.316915	79.545975	79.851151
13.421773	67.434311	68.283081
13.526630	62.646866	62.723160
13.631488	61.817169	61.111450
13.736346	69.398880	70.800781
13.841203	67.110062	67.625046
13.946061	73.194504	73.795319
14.050918	79.135895	82.626343
14.155776	66.461563	68.902969
14.260634	65.317154	64.477921
14.365491	57.392120	56.133270
14.470349	64.897537	65.231323
14.575206	63.610077	62.170029
14.680064	76.198578	77.056885
14.784922	66.328049	68.540573
14.889779	57.229996	56.228638
14.994637	65.832138	63.362122
15.099494	60.176849	61.702728
15.204352	61.073303	60.815811
15.309210	60.405731	59.823990
15.414067	61.416626	63.409805
15.518925	57.001114	55.313110
15.623782	59.080124	58.431625
15.728640	64.191818	64.325333
15.833498	69.818497	71.201324
15.938355	64.659119	64.935684
16.043213	63.886642	63.686371
16.148070	64.496994	66.432953
16.252928	67.043304	64.477921
16.357786	59.032440	59.366226
16.462643	67.052841	68.655014
16.567501	66.871643	68.655014
16.672358	57.916641	60.167313
16.777216	74.234009	74.300766
16.882074	54.197311	53.539276
16.986931	85.763931	88.109970
17.091789	62.150955	60.377121
17.196646	76.665878	77.829361
17.301504	57.516098	60.682297
17.406362	59.299469	59.022903
17.511219	67.768097	69.894791
17.616077	57.659149	56.858063
17.720934	68.216324	66.204071
17.825792	62.942505	64.201355
17.930650	67.071915	68.426132
18.035507	70.304871	70.867538
18.140365	71.554184	72.784424
18.245222	53.730011	54.121017
18.350080	65.536499	71.468353
18.454938	71.268082	71.048737
18.559795	66.242218	66.823959
18.664653	59.652328	60.520172
18.769510	60.052872	58.908463
18.874368	66.394806	69.169998
18.979226	60.892105	56.514740
19.084083	48.847198	47.101974
19.188941	56.219101	56.505203
19.293798	59.881210	60.644150
19.398656	62.675476	60.987473
19.503514	63.772202	65.689087
19.608371	68.006516	64.134598
19.713229	71.926117	69.828033
