1/9/2026	9:27 AM
Pseudo Cross Correlation
Scattering angle:	130.0
Duration (s):	20
Wavelength (nm):	632.8
Refractive index:	1.330
Viscosity (mPas):	0.826
Temperature (K):	301.5
Laser intensity (mW):	8.515793
Average Count rate  A (kHz):	101.9
Average Count rate  B (kHz):	101.1
Intercept:	0.8637
Cumulant 1st	118.50
Cumulant 2nd	114.86	21.81
Cumulant 3rd	112.85	33.65

Lag time (s)         g2-1
1.250000E-8	0.866066
2.500000E-8	0.859799
3.750000E-8	0.906803
5.000000E-8	0.853140
6.250000E-8	0.855882
7.500000E-8	0.894268
8.750000E-8	0.882909
1.000000E-7	0.859015
1.125000E-7	0.855882
1.250000E-7	0.878992
1.375000E-7	0.909153
1.500000E-7	0.870375
1.625000E-7	0.885259
1.750000E-7	0.850006
1.875000E-7	0.856273
2.000000E-7	0.859407
2.125000E-7	0.844914
2.250000E-7	0.900144
2.375000E-7	0.891527
2.500000E-7	0.835905
2.625000E-7	0.850006
2.750000E-7	0.864891
2.875000E-7	0.889176
3.000000E-7	0.887610
3.125000E-7	0.887218
3.250000E-7	0.848831
3.375000E-7	0.876642
3.500000E-7	0.871942
3.625000E-7	0.857057
3.750000E-7	0.793601
3.875000E-7	0.860582
4.000000E-7	0.872725
4.125000E-7	0.848439
4.250000E-7	0.917771
4.375000E-7	0.831988
4.500000E-7	0.866458
4.625000E-7	0.853923
4.750000E-7	0.878992
4.875000E-7	0.956157
5.000000E-7	0.803394
5.125000E-7	0.865674
5.250000E-7	0.840214
5.375000E-7	0.886826
5.500000E-7	0.859799
5.625000E-7	0.909153
5.750000E-7	0.833163
5.875000E-7	0.866849
6.000000E-7	0.866458
6.125000E-7	0.894268
6.250000E-7	0.877817
6.375000E-7	0.862932
6.500000E-7	0.840997
6.625000E-7	0.868024
6.750000E-7	0.862149
6.875000E-7	0.877034
7.000000E-7	0.830421
7.125000E-7	0.824937
7.250000E-7	0.851573
7.375000E-7	0.850790
7.500000E-7	0.820237
7.625000E-7	0.918946
7.750000E-7	0.857840
7.875000E-7	0.848439
8.000000E-7	0.890743
8.250000E-7	0.877034
8.500000E-7	0.858428
8.750000E-7	0.860974
9.000000E-7	0.864891
9.250000E-7	0.835905
9.500000E-7	0.851377
9.750000E-7	0.850398
1.000000E-6	0.843543
1.025000E-6	0.874488
1.050000E-6	0.869004
1.075000E-6	0.852356
1.100000E-6	0.835513
1.125000E-6	0.866849
1.150000E-6	0.851965
1.175000E-6	0.855882
1.200000E-6	0.881538
1.225000E-6	0.829246
1.250000E-6	0.868220
1.275000E-6	0.853531
1.300000E-6	0.878992
1.325000E-6	0.863128
1.350000E-6	0.866654
1.375000E-6	0.835709
1.400000E-6	0.866262
1.425000E-6	0.864695
1.450000E-6	0.845893
1.475000E-6	0.868808
1.500000E-6	0.846481
1.525000E-6	0.881146
1.550000E-6	0.866458
1.575000E-6	0.846677
1.600000E-6	0.867437
1.650000E-6	0.883986
1.700000E-6	0.856665
1.750000E-6	0.880755
1.800000E-6	0.841389
1.850000E-6	0.851867
1.900000E-6	0.856959
1.950000E-6	0.848537
2.000000E-6	0.875075
2.050000E-6	0.855000
2.100000E-6	0.879873
2.150000E-6	0.889372
2.200000E-6	0.880461
2.250000E-6	0.859897
2.300000E-6	0.840899
2.350000E-6	0.859799
2.400000E-6	0.875173
2.450000E-6	0.855294
2.500000E-6	0.863912
2.550000E-6	0.868122
2.600000E-6	0.881342
2.650000E-6	0.861463
2.700000E-6	0.861268
2.750000E-6	0.814949
2.800000E-6	0.864695
2.850000E-6	0.865772
2.900000E-6	0.871942
2.950000E-6	0.852846
3.000000E-6	0.839724
3.050000E-6	0.873312
3.100000E-6	0.879188
3.150000E-6	0.874488
3.200000E-6	0.849615
3.300000E-6	0.855343
3.400000E-6	0.859652
3.500000E-6	0.862002
3.600000E-6	0.860778
3.700000E-6	0.863030
3.800000E-6	0.839675
3.900000E-6	0.853531
4.000000E-6	0.848048
4.100000E-6	0.858281
4.200000E-6	0.848390
4.300000E-6	0.863226
4.400000E-6	0.842025
4.500000E-6	0.854805
4.600000E-6	0.857106
4.700000E-6	0.854902
4.800000E-6	0.842613
4.900000E-6	0.872578
5.000000E-6	0.844914
5.100000E-6	0.841046
5.200000E-6	0.863471
5.300000E-6	0.858477
5.400000E-6	0.840752
5.500000E-6	0.866115
5.600000E-6	0.865821
5.700000E-6	0.845697
5.800000E-6	0.850202
5.900000E-6	0.860337
6.000000E-6	0.857204
6.100000E-6	0.844229
6.200000E-6	0.852405
6.300000E-6	0.840410
6.400000E-6	0.867094
6.600000E-6	0.845404
6.800000E-6	0.852552
7.000000E-6	0.847313
7.200000E-6	0.846383
7.400000E-6	0.846481
7.600000E-6	0.845281
7.800000E-6	0.843617
8.000000E-6	0.851769
8.200000E-6	0.850520
8.400000E-6	0.839822
8.600000E-6	0.854486
8.800000E-6	0.850300
9.000000E-6	0.850422
9.200000E-6	0.841217
9.400000E-6	0.835660
9.600000E-6	0.830593
9.800000E-6	0.854535
1.000000E-5	0.834632
1.020000E-5	0.830666
1.040000E-5	0.841683
1.060000E-5	0.826920
1.080000E-5	0.840850
1.100000E-5	0.828316
1.120000E-5	0.829907
1.140000E-5	0.833555
1.160000E-5	0.842613
1.180000E-5	0.830201
1.200000E-5	0.837888
1.220000E-5	0.839112
1.240000E-5	0.830519
1.260000E-5	0.837423
1.280000E-5	0.826896
1.320000E-5	0.825476
1.360000E-5	0.836701
1.400000E-5	0.827887
1.440000E-5	0.828108
1.480000E-5	0.827814
1.520000E-5	0.831633
1.560000E-5	0.829111
1.600000E-5	0.828083
1.640000E-5	0.828744
1.680000E-5	0.818352
1.720000E-5	0.829013
1.760000E-5	0.832833
1.800000E-5	0.824080
1.840000E-5	0.819711
1.880000E-5	0.823175
1.920000E-5	0.814055
1.960000E-5	0.815573
2.000000E-5	0.817887
2.040000E-5	0.810334
2.080000E-5	0.824986
2.120000E-5	0.817985
2.160000E-5	0.818523
2.200000E-5	0.812085
2.240000E-5	0.807862
2.280000E-5	0.810261
2.320000E-5	0.813578
2.360000E-5	0.809563
2.400000E-5	0.818756
2.440000E-5	0.806307
2.480000E-5	0.801656
2.520000E-5	0.795021
2.560000E-5	0.801166
2.640000E-5	0.800389
2.720000E-5	0.802378
2.800000E-5	0.798277
2.880000E-5	0.795547
2.960000E-5	0.797494
3.040000E-5	0.790223
3.120000E-5	0.799936
3.200000E-5	0.788583
3.280000E-5	0.786006
3.360000E-5	0.789250
3.440000E-5	0.780467
3.520000E-5	0.785994
3.600000E-5	0.786532
3.680000E-5	0.779579
3.760000E-5	0.782211
3.840000E-5	0.779408
3.920000E-5	0.779671
4.000000E-5	0.778753
4.080000E-5	0.774451
4.160000E-5	0.767473
4.240000E-5	0.771819
4.320000E-5	0.770362
4.400000E-5	0.764107
4.480000E-5	0.764560
4.560000E-5	0.763850
4.640000E-5	0.760319
4.720000E-5	0.756457
4.800000E-5	0.755049
4.880000E-5	0.756738
4.960000E-5	0.757375
5.040000E-5	0.753513
5.120000E-5	0.747582
5.280000E-5	0.746119
5.440000E-5	0.742533
5.600000E-5	0.737967
5.760000E-5	0.734325
5.920000E-5	0.736782
6.080000E-5	0.730879
6.240000E-5	0.727001
6.400000E-5	0.725217
6.560000E-5	0.726763
6.720000E-5	0.718299
6.880000E-5	0.714489
7.040000E-5	0.717907
7.200000E-5	0.712075
7.360000E-5	0.709553
7.520000E-5	0.702353
7.680000E-5	0.701144
7.840000E-5	0.700688
8.000000E-5	0.694497
8.160000E-5	0.696308
8.320000E-5	0.690389
8.480000E-5	0.689609
8.640000E-5	0.685744
8.800000E-5	0.679252
8.960000E-5	0.676930
9.120000E-5	0.675460
9.280000E-5	0.676760
9.440000E-5	0.671329
9.600000E-5	0.666618
9.760000E-5	0.663227
9.920000E-5	0.656924
0.000101	0.654861
0.000102	0.658447
0.000106	0.654182
0.000109	0.645073
0.000112	0.637451
0.000115	0.636000
0.000118	0.630134
0.000122	0.624591
0.000125	0.617632
0.000128	0.613438
0.000131	0.606803
0.000134	0.605345
0.000138	0.600326
0.000141	0.591644
0.000144	0.588893
0.000147	0.583131
0.000150	0.576963
0.000154	0.573228
0.000157	0.569496
0.000160	0.562105
0.000163	0.560350
0.000166	0.555589
0.000170	0.549350
0.000173	0.547527
0.000176	0.539815
0.000179	0.536651
0.000182	0.532001
0.000186	0.526298
0.000189	0.523105
0.000192	0.517748
0.000195	0.517067
0.000198	0.512488
0.000202	0.505192
0.000205	0.501399
0.000211	0.494494
0.000218	0.488522
0.000224	0.480696
0.000230	0.472451
0.000237	0.463515
0.000243	0.457327
0.000250	0.447859
0.000256	0.439819
0.000262	0.432139
0.000269	0.425886
0.000275	0.419697
0.000282	0.412329
0.000288	0.405069
0.000294	0.399817
0.000301	0.393800
0.000307	0.387730
0.000314	0.378578
0.000320	0.373801
0.000326	0.368809
0.000333	0.362699
0.000339	0.356455
0.000346	0.347971
0.000352	0.344550
0.000358	0.338368
0.000365	0.332923
0.000371	0.326916
0.000378	0.321484
0.000384	0.317808
0.000390	0.310590
0.000397	0.307393
0.000403	0.300947
0.000410	0.297829
0.000422	0.286218
0.000435	0.276530
0.000448	0.268801
0.000461	0.259759
0.000474	0.252360
0.000486	0.243834
0.000499	0.235391
0.000512	0.229288
0.000525	0.219972
0.000538	0.213652
0.000550	0.207105
0.000563	0.200651
0.000576	0.194214
0.000589	0.187625
0.000602	0.181219
0.000614	0.175876
0.000627	0.169921
0.000640	0.165477
0.000653	0.160283
0.000666	0.154969
0.000678	0.149697
0.000691	0.144889
0.000704	0.141989
0.000717	0.135514
0.000730	0.133368
0.000742	0.129444
0.000755	0.125397
0.000768	0.121447
0.000781	0.116581
0.000794	0.113095
0.000806	0.108360
0.000819	0.104433
0.000845	0.097575
0.000870	0.092469
0.000896	0.085028
0.000922	0.080161
0.000947	0.075267
0.000973	0.069709
0.000998	0.064826
0.001024	0.061143
0.001050	0.058293
0.001075	0.055051
0.001101	0.051973
0.001126	0.049051
0.001152	0.046883
0.001178	0.045286
0.001203	0.041843
0.001229	0.041360
0.001254	0.040161
0.001280	0.037804
0.001306	0.035908
0.001331	0.033834
0.001357	0.032682
0.001382	0.030510
0.001408	0.030510
0.001434	0.029653
0.001459	0.028582
0.001485	0.028485
0.001510	0.027271
0.001536	0.028211
0.001562	0.028016
0.001587	0.026077
0.001613	0.025875
0.001638	0.024857
0.001690	0.023336
0.001741	0.021176
0.001792	0.019638
0.001843	0.017833
0.001894	0.016495
0.001946	0.014696
0.001997	0.012520
0.002048	0.011378
0.002099	0.010180
0.002150	0.007970
0.002202	0.007489
0.002253	0.007237
0.002304	0.005991
0.002355	0.004865
0.002406	0.004343
0.002458	0.004397
0.002509	0.003372
0.002560	0.003984
0.002611	0.003783
0.002662	0.001907
0.002714	0.001152
0.002765	0.000853
0.002816	0.001415
0.002867	0.000984
0.002918	9.925605E-5
0.002970	0.000670
0.003021	-0.000340
0.003072	-0.000884
0.003123	0.000428
0.003174	0.000811
0.003226	0.000392
0.003277	-4.764728E-5
0.003379	-0.000778
0.003482	-0.000745
0.003584	-0.000143
0.003686	-0.000308
0.003789	-0.000588
0.003891	-0.000435
0.003994	-0.000110
0.004096	0.000306
0.004198	0.001246
0.004301	0.001161
0.004403	0.000440
0.004506	0.002015
0.004608	0.001626
0.004710	0.001762
0.004813	0.001773
0.004915	0.001216
0.005018	0.001614
0.005120	0.000926
0.005222	0.000397
0.005325	-0.001022
0.005427	-0.000630
0.005530	-0.000912
0.005632	-0.000777
0.005734	-0.000438
0.005837	0.000109
0.005939	0.001025
0.006042	0.001459
0.006144	0.001544
0.006246	0.002804
0.006349	0.004016
0.006451	0.003444
0.006554	0.002111
0.006758	0.001179
0.006963	0.001606
0.007168	0.004356
0.007373	0.002959
0.007578	0.002391
0.007782	0.004619
0.007987	0.005422
0.008192	0.005442
0.008397	0.004889
0.008602	0.004063
0.008806	0.004017
0.009011	0.003380
0.009216	0.000442
0.009421	-0.000773
0.009626	0.000897
0.009830	0.004301
0.010035	0.006351
0.010240	0.006156
0.010445	0.008207
0.010650	0.011100
0.010854	0.008697
0.011059	0.006318
0.011264	0.004653
0.011469	0.002126
0.011674	0.002870
0.011878	0.002273
0.012083	0.001156
0.012288	-0.001503
0.012493	-0.002133
0.012698	-0.004892
0.012902	-0.005764
0.013107	-0.006325
0.013517	-0.004288
0.013926	-0.001615
0.014336	-0.000121
0.014746	0.000675
0.015155	-0.002750
0.015565	-0.003173
0.015974	-0.003894
0.016384	-8.628228E-6
0.016794	0.002670
0.017203	0.001926
0.017613	0.002317
0.018022	0.001384
0.018432	-0.002893
0.018842	-0.005282
0.019251	-0.006136
0.019661	-0.007464
0.020070	-0.002606
0.020480	0.001000
0.020890	0.000265
0.021299	-0.004026
0.021709	-0.006066
0.022118	-0.005999
0.022528	-0.005394
0.022938	-0.003443
0.023347	6.046925E-5
0.023757	0.002544
0.024166	0.001560
0.024576	0.001775
0.024986	0.000888
0.025395	0.000248
0.025805	0.000414
0.026214	-0.000476
0.027034	0.000227
0.027853	0.002088
0.028672	-0.002397
0.029491	-0.008728
0.030310	-0.005370
0.031130	0.002942
0.031949	0.001942
0.032768	0.000408
0.033587	0.003167
0.034406	0.003190
0.035226	-0.001164
0.036045	-0.003302
0.036864	0.001213
0.037683	0.004543
0.038502	-0.000457
0.039322	0.002698
0.040141	0.002094
0.040960	0.004127
0.041779	0.004544
0.042598	0.006317
0.043418	0.003758
0.044237	0.004724
0.045056	0.005184
0.045875	0.002123
0.046694	-0.001487
0.047514	-0.003529
0.048333	0.004501
0.049152	0.004131
0.049971	-0.000306
0.050790	0.001341
0.051610	0.002829
0.052429	0.005130
0.054067	0.001698
0.055706	0.001447
0.057344	0.003415
0.058982	0.003081
0.060621	0.001940
0.062259	-0.002588
0.063898	0.002783
0.065536	-0.003910
0.067174	-0.003339
0.068813	-0.003615
0.070451	-0.002198
0.072090	0.001315
0.073728	-0.004372
0.075366	0.000945
0.077005	0.003228
0.078643	0.002450
0.080282	-0.003664
0.081920	-0.003576
0.083558	-0.002117
0.085197	-0.001579
0.086835	0.002574
0.088474	0.002950
0.090112	-0.000158
0.091750	0.000451
0.093389	-0.002738
0.095027	-0.006525
0.096666	-0.001141
0.098304	0.001648
0.099942	0.003145
0.101581	-0.001708
0.103219	-0.001856
0.104858	-0.000403
0.108134	0.002152
0.111411	0.001587
0.114688	0.003634
0.117965	0.000149
0.121242	-0.003611
0.124518	0.002756
0.127795	-0.004194
0.131072	2.390125E-5
0.134349	0.001080
0.137626	-0.001715
0.140902	-0.001005
0.144179	0.000727
0.147456	0.000218
0.150733	0.001656
0.154010	0.002071
0.157286	0.003711
0.160563	0.000482
0.163840	0.001712
0.167117	0.007555
0.170394	0.001447
0.173670	0.000761
0.176947	0.000466
0.180224	0.003286
0.183501	-0.000431
0.186778	0.000978
0.190054	0.003388
0.193331	0.001516
0.196608	0.000466
0.199885	-0.001088
0.203162	-0.003643
0.206438	0.002156
0.209715	1.285776E-5
0.216269	0.000294
0.222822	0.001125
0.229376	-0.000977
0.235930	0.000524
0.242483	-0.000306
0.249037	-0.001296
0.255590	0.001384
0.262144	-0.001572
0.268698	0.001133
0.275251	0.004013
0.281805	-0.001369
0.288358	-0.002139
0.294912	-0.000791
0.301466	0.002191
0.308019	0.000657
0.314573	0.001017
0.321126	-0.003445
0.327680	-0.000103
0.334234	-0.002673
0.340787	-0.001918
0.347341	0.001695
0.353894	-0.001130
0.360448	0.001489
0.367002	-0.001960
0.373555	-0.000409
0.380109	0.000835
0.386662	0.001659
0.393216	-0.002231
0.399770	-0.002530
0.406323	0.001912
0.412877	-0.000559
0.419430	-8.541781E-5
0.432538	0.000971
0.445645	-0.001475
0.458752	0.000500
0.471859	-0.001954
0.484966	-0.002283
0.498074	-1.244799E-5
0.511181	0.001134
0.524288	-0.002363
0.537395	-0.000288
0.550502	-0.000220
0.563610	-0.000527
0.576717	-0.000412
0.589824	0.000662
0.602931	0.002305
0.616038	-0.001528
0.629146	-0.001372
0.642253	-0.002805
0.655360	-0.000110
0.668467	-0.000197
0.681574	0.000141
0.694682	-0.001701
0.707789	-0.001809
0.720896	-0.001971
0.734003	0.000656
0.747110	-0.000267
0.760218	-0.001209
0.773325	-0.000715
0.786432	0.001251
0.799539	-0.001049
0.812646	-0.000222
0.825754	-0.001256
0.838861	0.002124
0.865075	-0.000138
0.891290	0.000865
0.917504	-0.001105
0.943718	-0.000178
0.969933	-0.001832
0.996147	0.000719
1.022362	0.001228
1.048576	-0.000698
1.074790	0.000534
1.101005	-0.000209
1.127219	-0.001608
1.153434	-0.001083
1.179648	0.000156
1.205862	0.000689
1.232077	0.000288
1.258291	0.001447
1.284506	0.001440
1.310720	0.000306
1.336934	0.000157
1.363149	-0.000164
1.389363	0.000175
1.415578	0.000909
1.441792	0.002303
1.468006	5.055784E-5
1.494221	-4.290769E-5
1.520435	0.000491
1.546650	-0.000250
1.572864	0.000272
1.599078	0.000357
1.625293	0.001027
1.651507	-0.000739
1.677722	0.000657
1.730150	-0.000461
1.782579	-0.000249
1.835008	-0.000566
1.887437	0.000945
1.939866	-0.001476
1.992294	0.000629
2.044723	0.000392
2.097152	0.000889
2.149581	-0.001466
2.202010	0.000949
2.254438	2.156374E-5
2.306867	0.000212
2.359296	-4.835696E-5
2.411725	0.000838
2.464154	-0.000609
2.516582	-9.370148E-5
2.569011	-0.000835
2.621440	-0.000251
2.673869	-0.000833
2.726298	0.000660
2.778726	0.000335
2.831155	5.894620E-5
2.883584	0.001034
2.936013	0.000173
2.988442	-0.000164
3.040870	0.000569
3.093299	0.000728
3.145728	0.000173
3.198157	-0.000564
3.250586	9.781702E-5
3.303015	0.000329
3.355443	-0.000854
3.460301	-0.000390
3.565158	-0.000239
3.670016	0.000605
3.774873	-6.557968E-5
3.879731	-0.000156
3.984589	-0.000365
4.089447	2.649778E-6
4.194304	-0.000317
4.299161	0.000496
4.404019	-0.000171
4.508877	0.001126
4.613734	-0.000485
4.718592	0.000161
4.823450	-8.868573E-5
4.928307	0.000388
5.033165	-0.000834
5.138022	0.000512
5.242880	-0.000873
5.347738	0.000724
5.452595	-0.000780
5.557453	2.483749E-5
5.662311	0.000116
5.767168	-0.000325
5.872025	0.000358
5.976883	0.000507
6.081741	-0.000669
6.186598	-0.000589
6.291456	-0.000221
6.396314	-0.000241
6.501171	-6.963167E-6
6.606029	0.000353
6.710886	0.000417
6.920601	0.000798
7.130317	-0.000266
7.340032	-4.674492E-5
7.549747	-0.000247
7.759462	-0.000860
7.969178	-4.587994E-5
8.178893	0.000820
8.388608	0.000371
8.598323	0.000215
8.808039	0.001224
9.017754	-0.000502
9.227468	-0.001043
9.437184	6.485932E-5
9.646899	0.000998
9.856614	0.000440
10.066330	0.000278
10.276045	-0.000576
10.485760	-6.346978E-5
10.695476	-7.166400E-6
10.905190	0.000193
11.114905	-0.000239
11.324621	2.608675E-5
11.534336	-0.000588
11.744051	-0.000640
11.953767	0.000520
12.163482	0.000164
12.373197	-0.000747
12.582912	0.000110
12.792627	-0.000482
13.002342	0.000353
13.212058	0.001337
13.421773	-9.009719E-5
13.841203	-0.000431
14.260633	-0.000172
14.680064	0.000277
15.099494	-0.000152
15.518925	-0.000248
15.938355	-0.000334
16.357786	0.000211
16.777216	0.000320
17.196646	0.000739
17.616077	-0.000427
18.035507	-0.001100
18.454937	-0.001070
18.874369	0.000000
19.293798	NaN
19.713228	NaN
20.132660	NaN
20.552090	NaN
20.971519	NaN
21.390951	NaN
21.810381	NaN
22.229811	NaN
22.649242	NaN
23.068672	NaN
23.488102	NaN
23.907534	NaN
24.326963	NaN
24.746393	NaN
25.165825	NaN
25.585255	NaN
26.004684	NaN
26.424116	NaN
26.843546	NaN
27.682405	NaN
28.521267	NaN
29.360128	NaN
30.198988	NaN
31.037849	NaN
31.876711	NaN
32.715572	NaN
33.554432	NaN
34.393291	NaN
35.232155	NaN
36.071014	NaN
36.909874	NaN
37.748737	NaN
38.587597	NaN
39.426456	NaN
40.265320	NaN
41.104179	NaN
41.943039	NaN
42.781902	NaN
43.620762	NaN
44.459621	NaN
45.298485	NaN
46.137344	NaN
46.976204	NaN
47.815067	NaN
48.653927	NaN
49.492786	NaN
50.331650	NaN
51.170509	NaN
52.009369	NaN
52.848232	NaN
53.687092	NaN
55.364811	NaN
57.042534	NaN
58.720257	NaN
60.397976	NaN
62.075699	NaN
63.753422	NaN
65.431145	NaN
67.108864	NaN
68.786583	NaN
70.464310	NaN
72.142029	NaN
73.819748	NaN
75.497475	NaN
77.175194	NaN
78.852913	NaN
80.530640	NaN
82.208359	NaN
83.886078	NaN
85.563805	NaN
87.241524	NaN
88.919243	NaN
90.596970	NaN
92.274689	NaN
93.952408	NaN
95.630135	NaN
97.307854	NaN
98.985573	NaN
100.663300	NaN
102.341019	NaN
104.018738	NaN
105.696465	NaN
107.374184	NaN
110.729622	NaN
114.085068	NaN
117.440514	NaN
120.795952	NaN
124.151398	NaN
127.506844	NaN
130.862289	NaN
134.217728	NaN
137.573166	NaN
140.928619	NaN
144.284058	NaN
147.639496	NaN
150.994949	NaN
154.350388	NaN
157.705826	NaN
161.061279	NaN
164.416718	NaN
167.772156	NaN
171.127609	NaN
174.483047	NaN
177.838486	NaN
181.193939	NaN
184.549377	NaN
187.904816	NaN
191.260269	NaN
194.615707	NaN
197.971146	NaN
201.326599	NaN
204.682037	NaN
208.037476	NaN
211.392929	NaN
214.748367	NaN
221.459244	NaN
228.170135	NaN
234.881027	NaN
241.591904	NaN
248.302795	NaN
255.013687	NaN
261.724579	NaN
268.435455	NaN
275.146332	NaN
281.857239	NaN
288.568115	NaN
295.278992	NaN
301.989899	NaN
308.700775	NaN
315.411652	NaN
322.122559	NaN
328.833435	NaN
335.544312	NaN
342.255219	NaN
348.966095	NaN
355.676971	NaN
362.387878	NaN
369.098755	NaN
375.809631	NaN
382.520538	NaN
389.231415	NaN
395.942291	NaN
402.653198	NaN
409.364075	NaN
416.074951	NaN
422.785858	NaN
429.496735	NaN
442.918488	NaN
456.340271	NaN
469.762054	NaN
483.183807	NaN
496.605591	NaN
510.027374	NaN
523.449158	NaN
536.870911	NaN
550.292664	NaN
563.714478	NaN
577.136230	NaN
590.557983	NaN
603.979797	NaN
617.401550	NaN
630.823303	NaN
644.245117	NaN
657.666870	NaN
671.088623	NaN
684.510437	NaN
697.932190	NaN
711.353943	NaN
724.775757	NaN
738.197510	NaN
751.619263	NaN
765.041077	NaN
778.462830	NaN
791.884583	NaN
805.306396	NaN
818.728149	NaN
832.149902	NaN
845.571716	NaN
858.993469	NaN
885.836975	NaN
912.680542	NaN
939.524109	NaN
966.367615	NaN
993.211182	NaN
1020.054749	NaN
1046.898315	NaN
1073.741821	NaN
1100.585327	NaN
1127.428955	NaN
1154.272461	NaN
1181.115967	NaN
1207.959595	NaN
1234.803101	NaN
1261.646606	NaN
1288.490234	NaN
1315.333740	NaN
1342.177246	NaN
1369.020874	NaN
1395.864380	NaN
1422.707886	NaN
1449.551514	NaN
1476.395020	NaN
1503.238525	NaN
1530.082153	NaN
1556.925659	NaN
1583.769165	NaN
1610.612793	NaN
1637.456299	NaN
1664.299805	NaN
1691.143433	NaN
1717.986938	NaN
1771.673950	NaN
1825.361084	NaN
1879.048218	NaN
1932.735229	NaN
1986.422363	NaN
2040.109497	NaN
2093.796631	NaN
2147.483643	NaN
2201.170654	NaN
2254.857910	NaN
2308.544922	NaN
2362.231934	NaN
2415.919189	NaN
2469.606201	NaN
2523.293213	NaN
2576.980469	NaN
2630.667480	NaN
2684.354492	NaN
2738.041748	NaN
2791.728760	NaN
2845.415771	NaN
2899.103027	NaN
2952.790039	NaN
3006.477051	NaN
3060.164307	NaN
3113.851318	NaN
3167.538330	NaN
3221.225586	NaN
3274.912598	NaN
3328.599609	NaN
3382.286865	NaN
3435.973877	NaN
0.000000	NaN
0.000000	NaN
0.000000	NaN
0.000000	NaN
0.000000	NaN
0.000000	NaN
0.000000	NaN
0.000000	NaN
0.000000	NaN
0.000000	NaN
0.000000	NaN
0.000000	NaN
0.000000	NaN
0.000000	NaN
0.000000	NaN
0.000000	NaN
0.000000	NaN
0.000000	NaN
0.000000	NaN
0.000000	NaN
0.000000	NaN
0.000000	NaN
0.000000	NaN
0.000000	NaN
0.000000	NaN
0.000000	NaN
0.000000	NaN
0.000000	NaN
0.000000	NaN
0.000000	NaN
0.000000	NaN
0.000000	NaN

Count Rate History (KHz)  CR CHA / CR CHB
0.000000	87.881088	83.847046
0.104858	100.708008	102.462769
0.209715	93.469620	90.894699
0.314573	93.412399	91.609955
0.419430	104.970932	104.608536
0.524288	89.006424	86.860657
0.629146	92.086792	89.769363
0.734003	118.818283	116.386414
0.838861	105.018616	102.481842
0.943718	111.074448	110.025406
1.048576	109.481812	111.017227
1.153434	101.194382	102.319717
1.258291	117.311478	114.068985
1.363149	105.562210	102.596283
1.468006	98.571777	98.686218
1.572864	94.881058	94.528198
1.677722	115.356445	115.880966
1.782579	98.419189	99.077225
1.887437	97.246170	97.541809
1.992294	90.017319	88.262558
2.097152	104.179382	104.436874
2.202010	98.161697	94.032288
2.306867	106.058121	103.425980
2.411725	94.490051	93.584061
2.516582	90.522766	87.881088
2.621440	91.104507	88.052750
2.726298	104.846954	106.954575
2.831155	97.713470	97.341537
2.936013	99.821091	99.000931
3.040870	99.802017	98.342896
3.145728	105.657578	106.267929
3.250586	97.007751	96.826553
3.355443	90.599060	87.528229
3.460301	103.092194	105.514526
3.565158	93.021393	93.851089
3.670016	101.776123	97.370148
3.774874	102.100372	101.728439
3.879731	86.364746	81.453323
3.984589	100.250244	104.675293
4.089446	91.581345	89.216232
4.194304	103.368759	102.014542
4.299162	116.586685	115.928650
4.404019	104.837418	103.750229
4.508877	107.212067	109.853745
4.613734	113.496780	108.880997
4.718592	107.460022	107.259750
4.823450	98.495483	98.638535
4.928307	106.191635	105.524063
5.033165	97.961426	97.150803
5.138022	93.688965	89.292526
5.242880	103.769302	104.522705
5.347738	101.261139	96.788406
5.452595	103.454590	105.571747
5.557453	111.675262	112.257004
5.662310	101.451874	101.852417
5.767168	97.646713	95.500946
5.872026	99.582672	101.795197
5.976883	101.413727	102.205276
6.081741	111.122131	105.943680
6.186598	101.976395	101.270676
6.291456	95.214844	97.532272
6.396314	108.308792	107.126236
6.501171	90.408325	90.322495
6.606029	112.180710	114.984512
6.710886	103.368759	102.987289
6.815744	108.499527	111.722946
6.920602	100.831985	93.088150
7.025459	92.124939	91.695786
7.130317	100.126266	99.315643
7.235174	113.716125	119.733810
7.340032	102.262497	97.932816
7.444890	104.541779	105.152130
7.549747	93.641281	91.257095
7.654605	100.736618	104.570389
7.759462	97.923279	97.846985
7.864320	87.366104	83.942413
7.969178	115.289688	116.043091
8.074035	101.213455	100.193024
8.178893	102.233887	102.558136
8.283750	99.992752	99.830627
8.388608	103.502274	98.085403
8.493466	96.206665	98.867416
8.598323	96.969604	96.635818
8.703181	102.043152	101.270676
8.808038	105.266571	105.676651
8.912896	94.547272	89.540482
9.017754	98.018646	98.114014
9.122611	91.457367	87.165833
9.227469	101.995468	101.375580
9.332326	101.118088	98.457336
9.437184	109.329224	107.536316
9.542042	107.717514	109.939575
9.646899	122.146606	119.543076
9.751757	108.032227	110.845566
9.856614	99.639893	96.235275
9.961472	97.293854	95.415115
10.066330	99.849701	95.949173
10.171187	86.946487	88.405609
10.276045	104.398727	102.748871
10.380902	95.033646	94.299316
10.485760	97.417831	94.470978
10.590618	105.056763	104.064941
10.695475	94.738007	94.146729
10.800333	91.514587	89.864731
10.905190	107.650757	103.588104
11.010048	95.949173	97.503662
11.114906	115.184784	115.070343
11.219763	111.608505	111.389160
11.324621	107.326508	107.069016
11.429478	97.694397	97.227097
11.534336	117.321014	113.763809
11.639194	93.278885	95.262527
11.744051	97.036362	94.861984
11.848909	94.423294	96.378326
11.953766	107.002258	103.397369
12.058624	102.148056	97.656250
12.163482	106.458664	103.254318
12.268339	91.743469	91.180801
12.373197	101.337433	99.124908
12.478054	94.146729	91.533661
12.582912	107.784271	106.048584
12.687770	103.902817	101.785660
12.792627	110.006332	109.310150
12.897485	111.618042	106.515884
13.002342	87.404251	84.905624
13.107200	108.013153	107.908249
13.212058	108.041763	105.209351
13.316915	100.917816	99.830627
13.421773	100.708008	99.506378
13.526630	97.093582	101.175308
13.631488	111.761093	110.559464
13.736346	91.943741	92.010498
13.841203	102.090836	101.032257
13.946061	95.596313	99.039078
14.050918	125.284195	126.466751
14.155776	124.645233	123.872757
14.260634	109.376907	109.910965
14.365491	129.108429	133.771896
14.470349	97.942352	94.099045
14.575206	84.581375	85.477829
14.680064	86.164474	82.416534
14.784922	90.703964	87.661743
14.889779	99.544525	105.066299
14.994637	121.698380	116.138458
15.099494	96.282959	95.043182
15.204352	109.367371	107.936859
15.309210	104.923248	103.883743
15.414067	118.331909	117.006302
15.518925	111.541748	112.752914
15.623782	104.837418	103.359222
15.728640	103.130341	102.090836
15.833498	100.440979	101.327896
15.938355	95.062256	94.327927
16.043213	106.115341	105.171204
16.148070	96.340179	96.473694
16.252928	112.943649	116.786957
16.357786	115.070343	108.299255
16.462643	108.051300	108.222961
16.567501	94.022751	95.567703
16.672358	91.829300	86.135864
16.777216	101.556778	103.340149
16.882074	116.195679	117.235184
16.986931	92.830658	92.964172
17.091789	93.402863	94.461441
17.196646	100.936890	96.960068
17.301504	100.221634	98.886490
17.406362	109.405518	107.240677
17.511219	91.667175	89.855194
17.616077	103.473663	100.421906
17.720934	111.379623	114.355087
17.825792	98.094940	100.154877
17.930650	103.445053	103.864670
18.035507	105.314255	107.507706
18.140365	108.146667	105.962753
18.245222	99.468231	98.772049
18.350080	94.242096	98.114014
18.454938	111.007690	107.517242
18.559795	101.137161	104.389191
18.664653	108.861923	105.438232
18.769510	97.179413	96.454620
18.874368	90.761185	87.966919
18.979226	98.648071	99.792480
19.084083	99.754333	101.165771
19.188941	100.555420	101.575851
19.293798	99.487305	96.302032
19.398656	101.737976	99.525452
19.503514	107.402802	109.615326
19.608371	91.638565	89.282990
19.713229	105.972290	105.171204
