1/9/2026	9:26 AM
Pseudo Cross Correlation
Scattering angle:	90.0
Duration (s):	20
Wavelength (nm):	632.8
Refractive index:	1.330
Viscosity (mPas):	0.827
Temperature (K):	301.4
Laser intensity (mW):	8.543012
Average Count rate  A (kHz):	107.7
Average Count rate  B (kHz):	108.5
Intercept:	0.9339
Cumulant 1st	129.77
Cumulant 2nd	121.10	32.30
Cumulant 3rd	126.04	26.78

Lag time (s)         g2-1
1.250000E-8	0.907097
2.500000E-8	0.980341
3.750000E-8	0.955465
5.000000E-8	0.929208
6.250000E-8	0.921953
7.500000E-8	0.914352
8.750000E-8	0.883258
1.000000E-7	0.926444
1.125000E-7	0.921608
1.250000E-7	0.919535
1.375000E-7	0.972049
1.500000E-7	0.943028
1.625000E-7	0.925062
1.750000E-7	0.935773
1.875000E-7	0.887059
2.000000E-7	0.918844
2.125000E-7	0.967558
2.250000E-7	0.958229
2.375000E-7	0.926099
2.500000E-7	0.930245
2.625000E-7	0.906061
2.750000E-7	0.917807
2.875000E-7	0.929208
3.000000E-7	0.875312
3.125000E-7	0.941300
3.250000E-7	0.947519
3.375000E-7	0.941991
3.500000E-7	0.937500
3.625000E-7	0.919189
3.750000E-7	0.912970
3.875000E-7	0.973776
4.000000E-7	0.960648
4.125000E-7	0.939227
4.250000E-7	0.936118
4.375000E-7	0.874276
4.500000E-7	0.920917
4.625000E-7	0.939573
4.750000E-7	0.889823
4.875000E-7	0.904333
5.000000E-7	0.937846
5.125000E-7	0.907443
5.250000E-7	0.936809
5.375000E-7	0.984141
5.500000E-7	0.965139
5.625000E-7	0.934391
5.750000E-7	0.915043
5.875000E-7	0.898460
6.000000E-7	0.948210
6.125000E-7	0.932318
6.250000E-7	0.966521
6.375000E-7	0.926790
6.500000E-7	0.911588
6.625000E-7	0.914352
6.750000E-7	0.906752
6.875000E-7	0.891550
7.000000E-7	0.945446
7.125000E-7	0.963412
7.250000E-7	0.921608
7.375000E-7	0.920917
7.500000E-7	0.980341
7.625000E-7	0.945446
7.750000E-7	0.965485
7.875000E-7	0.937500
8.000000E-7	0.924026
8.250000E-7	0.922471
8.500000E-7	0.958229
8.750000E-7	0.951320
9.000000E-7	0.925235
9.250000E-7	0.952011
9.500000E-7	0.936118
9.750000E-7	0.930245
1.000000E-6	0.945792
1.025000E-6	0.917980
1.050000E-6	0.952529
1.075000E-6	0.907097
1.100000E-6	0.943201
1.125000E-6	0.902087
1.150000E-6	0.942682
1.175000E-6	0.939400
1.200000E-6	0.911243
1.225000E-6	0.928172
1.250000E-6	0.931108
1.275000E-6	0.917634
1.300000E-6	0.933527
1.325000E-6	0.928345
1.350000E-6	0.926617
1.375000E-6	0.914698
1.400000E-6	0.937846
1.425000E-6	0.944064
1.450000E-6	0.938191
1.475000E-6	0.918498
1.500000E-6	0.911070
1.525000E-6	0.939746
1.550000E-6	0.911070
1.575000E-6	0.938882
1.600000E-6	0.902260
1.650000E-6	0.931195
1.700000E-6	0.944842
1.750000E-6	0.919707
1.800000E-6	0.902692
1.850000E-6	0.930072
1.900000E-6	0.930590
1.950000E-6	0.971790
2.000000E-6	0.926272
2.050000E-6	0.934650
2.100000E-6	0.940437
2.150000E-6	0.942164
2.200000E-6	0.919966
2.250000E-6	0.911934
2.300000E-6	0.924631
2.350000E-6	0.941473
2.400000E-6	0.932318
2.450000E-6	0.924285
2.500000E-6	0.914439
2.550000E-6	0.951060
2.600000E-6	0.923853
2.650000E-6	0.925235
2.700000E-6	0.935168
2.750000E-6	0.934391
2.800000E-6	0.926272
2.850000E-6	0.933613
2.900000E-6	0.913316
2.950000E-6	0.927740
3.000000E-6	0.937241
3.050000E-6	0.910638
3.100000E-6	0.935168
3.150000E-6	0.929727
3.200000E-6	0.966953
3.300000E-6	0.921867
3.400000E-6	0.931972
3.500000E-6	0.945317
3.600000E-6	0.933829
3.700000E-6	0.940437
3.800000E-6	0.931195
3.900000E-6	0.933570
4.000000E-6	0.927265
4.100000E-6	0.930072
4.200000E-6	0.921737
4.300000E-6	0.932965
4.400000E-6	0.929683
4.500000E-6	0.920312
4.600000E-6	0.935384
4.700000E-6	0.939832
4.800000E-6	0.918412
4.900000E-6	0.920830
5.000000E-6	0.925106
5.100000E-6	0.924328
5.200000E-6	0.940523
5.300000E-6	0.935773
5.400000E-6	0.910293
5.500000E-6	0.928301
5.600000E-6	0.933441
5.700000E-6	0.925969
5.800000E-6	0.924199
5.900000E-6	0.916943
6.000000E-6	0.920485
6.100000E-6	0.926790
6.200000E-6	0.930331
6.300000E-6	0.910379
6.400000E-6	0.927394
6.600000E-6	0.915864
6.800000E-6	0.915259
7.000000E-6	0.921780
7.200000E-6	0.922968
7.400000E-6	0.927394
7.600000E-6	0.926488
7.800000E-6	0.909710
8.000000E-6	0.916900
8.200000E-6	0.921327
8.400000E-6	0.918023
8.600000E-6	0.930223
8.800000E-6	0.927200
9.000000E-6	0.925192
9.200000E-6	0.919362
9.400000E-6	0.911459
9.600000E-6	0.931562
9.800000E-6	0.925753
1.000000E-5	0.914827
1.020000E-5	0.920204
1.040000E-5	0.922083
1.060000E-5	0.924587
1.080000E-5	0.915799
1.100000E-5	0.905953
1.120000E-5	0.915972
1.140000E-5	0.918692
1.160000E-5	0.914158
1.180000E-5	0.916252
1.200000E-5	0.909969
1.220000E-5	0.919513
1.240000E-5	0.921197
1.260000E-5	0.917008
1.280000E-5	0.903189
1.320000E-5	0.911448
1.360000E-5	0.914277
1.400000E-5	0.912852
1.440000E-5	0.919070
1.480000E-5	0.917818
1.520000E-5	0.909904
1.560000E-5	0.916231
1.600000E-5	0.906924
1.640000E-5	0.916382
1.680000E-5	0.916037
1.720000E-5	0.910163
1.760000E-5	0.907540
1.800000E-5	0.905553
1.840000E-5	0.898093
1.880000E-5	0.901958
1.920000E-5	0.900263
1.960000E-5	0.908598
2.000000E-5	0.910304
2.040000E-5	0.907259
2.080000E-5	0.901904
2.120000E-5	0.906050
2.160000E-5	0.904625
2.200000E-5	0.901299
2.240000E-5	0.910520
2.280000E-5	0.898546
2.320000E-5	0.902616
2.360000E-5	0.897607
2.400000E-5	0.897520
2.440000E-5	0.895707
2.480000E-5	0.892349
2.520000E-5	0.890298
2.560000E-5	0.901029
2.640000E-5	0.898514
2.720000E-5	0.891933
2.800000E-5	0.891734
2.880000E-5	0.897904
2.960000E-5	0.892802
3.040000E-5	0.890211
3.120000E-5	0.890854
3.200000E-5	0.893072
3.280000E-5	0.892592
3.360000E-5	0.885078
3.440000E-5	0.887464
3.520000E-5	0.880440
3.600000E-5	0.879712
3.680000E-5	0.878303
3.760000E-5	0.881542
3.840000E-5	0.875231
3.920000E-5	0.881477
4.000000E-5	0.878594
4.080000E-5	0.875366
4.160000E-5	0.872213
4.240000E-5	0.869320
4.320000E-5	0.875269
4.400000E-5	0.876041
4.480000E-5	0.871576
4.560000E-5	0.871879
4.640000E-5	0.867755
4.720000E-5	0.873487
4.800000E-5	0.868840
4.880000E-5	0.868057
4.960000E-5	0.865779
5.040000E-5	0.859997
5.120000E-5	0.862864
5.280000E-5	0.860618
5.440000E-5	0.858480
5.600000E-5	0.853992
5.760000E-5	0.852707
5.920000E-5	0.854979
6.080000E-5	0.854081
6.240000E-5	0.848059
6.400000E-5	0.848485
6.560000E-5	0.842609
6.720000E-5	0.841485
6.880000E-5	0.836400
7.040000E-5	0.839577
7.200000E-5	0.834318
7.360000E-5	0.838271
7.520000E-5	0.835777
7.680000E-5	0.829221
7.840000E-5	0.831182
8.000000E-5	0.831844
8.160000E-5	0.823286
8.320000E-5	0.822811
8.480000E-5	0.817045
8.640000E-5	0.817480
8.800000E-5	0.818910
8.960000E-5	0.817196
9.120000E-5	0.813890
9.280000E-5	0.811133
9.440000E-5	0.806493
9.600000E-5	0.809708
9.760000E-5	0.802899
9.920000E-5	0.803858
0.000101	0.799784
0.000102	0.803864
0.000106	0.794659
0.000109	0.791132
0.000112	0.787146
0.000115	0.784632
0.000118	0.782250
0.000122	0.777395
0.000125	0.772871
0.000128	0.767000
0.000131	0.767565
0.000134	0.763054
0.000138	0.759122
0.000141	0.756310
0.000144	0.750418
0.000147	0.751018
0.000150	0.745481
0.000154	0.740082
0.000157	0.738301
0.000160	0.734980
0.000163	0.734571
0.000166	0.729097
0.000170	0.722824
0.000173	0.723908
0.000176	0.718631
0.000179	0.714135
0.000182	0.709388
0.000186	0.707498
0.000189	0.705766
0.000192	0.702288
0.000195	0.694072
0.000198	0.694647
0.000202	0.693422
0.000205	0.686388
0.000211	0.682614
0.000218	0.673694
0.000224	0.669377
0.000230	0.662950
0.000237	0.656590
0.000243	0.649940
0.000250	0.643753
0.000256	0.638181
0.000262	0.631968
0.000269	0.624908
0.000275	0.618187
0.000282	0.612981
0.000288	0.609003
0.000294	0.603289
0.000301	0.595242
0.000307	0.591237
0.000314	0.583274
0.000320	0.578102
0.000326	0.574581
0.000333	0.569200
0.000339	0.562644
0.000346	0.558692
0.000352	0.550650
0.000358	0.548917
0.000365	0.543064
0.000371	0.537273
0.000378	0.532020
0.000384	0.525495
0.000390	0.522875
0.000397	0.517458
0.000403	0.511951
0.000410	0.506102
0.000422	0.497594
0.000435	0.489643
0.000448	0.479562
0.000461	0.470238
0.000474	0.460971
0.000486	0.452560
0.000499	0.445130
0.000512	0.434906
0.000525	0.428171
0.000538	0.420184
0.000550	0.413662
0.000563	0.405505
0.000576	0.397096
0.000589	0.389771
0.000602	0.381614
0.000614	0.374839
0.000627	0.367691
0.000640	0.361774
0.000653	0.355595
0.000666	0.347897
0.000678	0.342685
0.000691	0.334475
0.000704	0.327726
0.000717	0.322352
0.000730	0.316157
0.000742	0.310669
0.000755	0.304723
0.000768	0.300162
0.000781	0.292760
0.000794	0.287739
0.000806	0.283668
0.000819	0.277712
0.000845	0.268032
0.000870	0.257222
0.000896	0.248626
0.000922	0.239559
0.000947	0.231792
0.000973	0.222320
0.000998	0.215082
0.001024	0.208063
0.001050	0.200754
0.001075	0.193951
0.001101	0.189024
0.001126	0.182568
0.001152	0.175757
0.001178	0.169879
0.001203	0.162978
0.001229	0.158305
0.001254	0.153418
0.001280	0.149546
0.001306	0.144145
0.001331	0.138935
0.001357	0.134562
0.001382	0.129818
0.001408	0.126557
0.001434	0.122819
0.001459	0.119379
0.001485	0.114890
0.001510	0.112572
0.001536	0.108757
0.001562	0.104583
0.001587	0.102142
0.001613	0.098583
0.001638	0.095390
0.001690	0.089934
0.001741	0.085346
0.001792	0.079854
0.001843	0.075594
0.001894	0.071094
0.001946	0.066864
0.001997	0.064228
0.002048	0.060178
0.002099	0.056782
0.002150	0.054108
0.002202	0.050162
0.002253	0.048016
0.002304	0.046119
0.002355	0.044474
0.002406	0.043441
0.002458	0.041419
0.002509	0.039495
0.002560	0.038440
0.002611	0.036990
0.002662	0.035591
0.002714	0.034756
0.002765	0.032758
0.002816	0.032749
0.002867	0.031087
0.002918	0.031111
0.002970	0.030791
0.003021	0.029992
0.003072	0.029337
0.003123	0.028686
0.003174	0.028850
0.003226	0.028420
0.003277	0.027912
0.003379	0.028782
0.003482	0.027528
0.003584	0.027421
0.003686	0.027508
0.003789	0.027467
0.003891	0.026367
0.003994	0.025663
0.004096	0.023261
0.004198	0.021579
0.004301	0.020522
0.004403	0.019738
0.004506	0.017942
0.004608	0.016385
0.004710	0.014612
0.004813	0.014012
0.004915	0.014140
0.005018	0.013090
0.005120	0.012840
0.005222	0.011393
0.005325	0.010716
0.005427	0.009924
0.005530	0.009038
0.005632	0.009902
0.005734	0.010283
0.005837	0.010804
0.005939	0.011261
0.006042	0.012708
0.006144	0.011991
0.006246	0.012167
0.006349	0.011646
0.006451	0.011009
0.006554	0.010967
0.006758	0.011516
0.006963	0.013356
0.007168	0.011748
0.007373	0.009362
0.007578	0.007938
0.007782	0.008713
0.007987	0.009580
0.008192	0.010552
0.008397	0.009756
0.008602	0.009573
0.008806	0.009239
0.009011	0.009985
0.009216	0.010291
0.009421	0.009327
0.009626	0.008927
0.009830	0.009304
0.010035	0.009405
0.010240	0.009518
0.010445	0.008849
0.010650	0.008285
0.010854	0.007750
0.011059	0.008963
0.011264	0.010689
0.011469	0.011211
0.011674	0.009444
0.011878	0.007720
0.012083	0.006464
0.012288	0.003544
0.012493	0.001322
0.012698	0.000882
0.012902	0.001736
0.013107	0.002458
0.013517	0.001185
0.013926	0.000310
0.014336	-0.002210
0.014746	-0.004219
0.015155	0.000253
0.015565	0.003349
0.015974	0.002932
0.016384	-0.001129
0.016794	-0.001620
0.017203	-0.003142
0.017613	-0.003572
0.018022	-0.002118
0.018432	0.001981
0.018842	0.006726
0.019251	0.011196
0.019661	0.013517
0.020070	0.013047
0.020480	0.012081
0.020890	0.014463
0.021299	0.015437
0.021709	0.015040
0.022118	0.012002
0.022528	0.011827
0.022938	0.012899
0.023347	0.015139
0.023757	0.017128
0.024166	0.017759
0.024576	0.016787
0.024986	0.016648
0.025395	0.014775
0.025805	0.012668
0.026214	0.010163
0.027034	0.006340
0.027853	0.005377
0.028672	0.004511
0.029491	0.006238
0.030310	0.008444
0.031130	0.008115
0.031949	0.015835
0.032768	0.017522
0.033587	0.016526
0.034406	0.009220
0.035226	0.010508
0.036045	0.006140
0.036864	0.009876
0.037683	0.006200
0.038502	0.010420
0.039322	0.011291
0.040141	0.009967
0.040960	0.013380
0.041779	0.009670
0.042598	0.004545
0.043418	0.007252
0.044237	0.008536
0.045056	0.006302
0.045875	0.003656
0.046694	0.003830
0.047514	0.008415
0.048333	0.004857
0.049152	0.003976
0.049971	0.006842
0.050790	0.005333
0.051610	0.003271
0.052429	0.003025
0.054067	0.005435
0.055706	0.007531
0.057344	0.009139
0.058982	0.009811
0.060621	0.012933
0.062259	0.008707
0.063898	0.003513
0.065536	0.005638
0.067174	0.007615
0.068813	0.010139
0.070451	0.013412
0.072090	0.007640
0.073728	0.010961
0.075366	0.004808
0.077005	0.004470
0.078643	0.003015
0.080282	0.003104
0.081920	0.006295
0.083558	0.008085
0.085197	0.004215
0.086835	-0.001711
0.088474	-0.004043
0.090112	0.009699
0.091750	0.009483
0.093389	0.009448
0.095027	0.005586
0.096666	0.001430
0.098304	0.005846
0.099942	0.008716
0.101581	0.013128
0.103219	0.011896
0.104858	0.002269
0.108134	0.001456
0.111411	0.008676
0.114688	0.003780
0.117965	0.014145
0.121242	0.015888
0.124518	0.001234
0.127795	0.003892
0.131072	0.004525
0.134349	0.012453
0.137626	0.006814
0.140902	0.008420
0.144179	-0.000468
0.147456	0.002355
0.150733	-0.001392
0.154010	0.012311
0.157286	0.002684
0.160563	0.008821
0.163840	0.009559
0.167117	0.003824
0.170394	-0.000963
0.173670	0.002129
0.176947	0.003875
0.180224	0.008723
0.183501	0.007845
0.186778	0.008952
0.190054	-0.005140
0.193331	0.000719
0.196608	9.489164E-6
0.199885	0.000249
0.203162	0.005720
0.206438	0.001535
0.209715	0.008640
0.216269	0.006914
0.222822	0.005099
0.229376	0.008242
0.235930	0.009363
0.242483	-0.003333
0.249037	0.007749
0.255590	0.000758
0.262144	0.002309
0.268698	0.007718
0.275251	0.003975
0.281805	0.001081
0.288358	0.002134
0.294912	0.004204
0.301466	0.002648
0.308019	0.011985
0.314573	0.007052
0.321126	-0.004081
0.327680	0.006015
0.334234	-0.006057
0.340787	0.006391
0.347341	0.006791
0.353894	0.002038
0.360448	0.001747
0.367002	0.003806
0.373555	0.004869
0.380109	0.003847
0.386662	0.011875
0.393216	0.002376
0.399770	0.001282
0.406323	0.005989
0.412877	0.007075
0.419430	0.001939
0.432538	0.003700
0.445645	0.003071
0.458752	0.005697
0.471859	0.006380
0.484966	0.001178
0.498074	0.005454
0.511181	0.001674
0.524288	0.000776
0.537395	0.002607
0.550502	0.005107
0.563610	0.001555
0.576717	0.002920
0.589824	0.003139
0.602931	0.003516
0.616038	-0.000353
0.629146	0.001568
0.642253	-0.000409
0.655360	0.002173
0.668467	0.003899
0.681574	0.002766
0.694682	-0.000196
0.707789	0.007952
0.720896	-0.004255
0.734003	0.002795
0.747110	-0.000950
0.760218	0.003555
0.773325	0.001172
0.786432	0.005715
0.799539	0.003540
0.812646	0.003313
0.825754	0.002181
0.838861	0.002511
0.865075	-0.000421
0.891290	0.003723
0.917504	8.825528E-5
0.943718	0.000805
0.969933	0.001992
0.996147	0.000660
1.022362	0.000989
1.048576	0.002200
1.074790	0.001437
1.101005	0.000368
1.127219	-0.001691
1.153434	0.001976
1.179648	0.004974
1.205862	0.003189
1.232077	0.002988
1.258291	0.001961
1.284506	0.003763
1.310720	0.003398
1.336934	0.004804
1.363149	0.004278
1.389363	0.003668
1.415578	0.001157
1.441792	-0.000111
1.468006	0.002262
1.494221	0.001330
1.520435	0.000450
1.546650	0.001897
1.572864	0.002105
1.599078	0.005199
1.625293	0.001473
1.651507	0.001579
1.677722	0.002785
1.730150	0.003206
1.782579	0.001804
1.835008	0.001130
1.887437	0.000102
1.939866	-0.001984
1.992294	-0.001208
2.044723	0.002746
2.097152	0.000398
2.149581	-0.000326
2.202010	-0.002184
2.254438	-0.001287
2.306867	-0.002603
2.359296	-0.002031
2.411725	-0.003425
2.464154	-0.001528
2.516582	-0.001310
2.569011	0.000939
2.621440	-0.000153
2.673869	-0.001734
2.726298	-0.001415
2.778726	-0.001732
2.831155	-0.003944
2.883584	-0.003964
2.936013	-0.000799
2.988442	-0.001329
3.040870	-0.002681
3.093299	-0.003644
3.145728	-0.002263
3.198157	-0.001861
3.250586	-0.002751
3.303015	-0.003306
3.355443	-0.001215
3.460301	-0.000928
3.565158	-0.002428
3.670016	-0.000553
3.774873	-0.001384
3.879731	-0.002256
3.984589	-0.000859
4.089447	1.835296E-5
4.194304	-0.004382
4.299161	-0.002452
4.404019	-0.002188
4.508877	-0.003443
4.613734	-0.002606
4.718592	-0.001354
4.823450	-0.001522
4.928307	-0.001308
5.033165	0.000391
5.138022	-0.000981
5.242880	-0.000650
5.347738	0.000467
5.452595	0.000801
5.557453	-0.000615
5.662311	-0.000135
5.767168	-0.000440
5.872025	-0.001350
5.976883	-0.003179
6.081741	-0.000107
6.186598	-0.000477
6.291456	0.001107
6.396314	0.001132
6.501171	-0.000787
6.606029	0.000177
6.710886	0.003463
6.920601	0.002742
7.130317	0.000617
7.340032	0.000291
7.549747	-0.000948
7.759462	-0.002162
7.969178	-0.001674
8.178893	-0.001728
8.388608	0.000687
8.598323	-0.000998
8.808039	-0.003994
9.017754	-0.002906
9.227468	-0.002643
9.437184	-0.002464
9.646899	-0.003934
9.856614	-0.005057
10.066330	-0.002634
10.276045	-0.003365
10.485760	-0.003212
10.695476	-0.001244
10.905190	-0.003212
11.114905	-0.003244
11.324621	-0.003475
11.534336	-0.003898
11.744051	-0.001386
11.953767	0.001771
12.163482	0.003465
12.373197	0.004109
12.582912	0.001093
12.792627	0.000245
13.002342	0.004284
13.212058	0.004284
13.421773	0.005725
13.841203	0.004736
14.260633	0.003712
14.680064	-0.002444
15.099494	0.000349
15.518925	0.000284
15.938355	-0.006489
16.357786	-0.004247
16.777216	-0.002597
17.196646	-0.000253
17.616077	-0.000860
18.035507	-0.003042
18.454937	-0.002124
18.874369	0.000000
19.293798	NaN
19.713228	NaN
20.132660	NaN
20.552090	NaN
20.971519	NaN
21.390951	NaN
21.810381	NaN
22.229811	NaN
22.649242	NaN
23.068672	NaN
23.488102	NaN
23.907534	NaN
24.326963	NaN
24.746393	NaN
25.165825	NaN
25.585255	NaN
26.004684	NaN
26.424116	NaN
26.843546	NaN
27.682405	NaN
28.521267	NaN
29.360128	NaN
30.198988	NaN
31.037849	NaN
31.876711	NaN
32.715572	NaN
33.554432	NaN
34.393291	NaN
35.232155	NaN
36.071014	NaN
36.909874	NaN
37.748737	NaN
38.587597	NaN
39.426456	NaN
40.265320	NaN
41.104179	NaN
41.943039	NaN
42.781902	NaN
43.620762	NaN
44.459621	NaN
45.298485	NaN
46.137344	NaN
46.976204	NaN
47.815067	NaN
48.653927	NaN
49.492786	NaN
50.331650	NaN
51.170509	NaN
52.009369	NaN
52.848232	NaN
53.687092	NaN
55.364811	NaN
57.042534	NaN
58.720257	NaN
60.397976	NaN
62.075699	NaN
63.753422	NaN
65.431145	NaN
67.108864	NaN
68.786583	NaN
70.464310	NaN
72.142029	NaN
73.819748	NaN
75.497475	NaN
77.175194	NaN
78.852913	NaN
80.530640	NaN
82.208359	NaN
83.886078	NaN
85.563805	NaN
87.241524	NaN
88.919243	NaN
90.596970	NaN
92.274689	NaN
93.952408	NaN
95.630135	NaN
97.307854	NaN
98.985573	NaN
100.663300	NaN
102.341019	NaN
104.018738	NaN
105.696465	NaN
107.374184	NaN
110.729622	NaN
114.085068	NaN
117.440514	NaN
120.795952	NaN
124.151398	NaN
127.506844	NaN
130.862289	NaN
134.217728	NaN
137.573166	NaN
140.928619	NaN
144.284058	NaN
147.639496	NaN
150.994949	NaN
154.350388	NaN
157.705826	NaN
161.061279	NaN
164.416718	NaN
167.772156	NaN
171.127609	NaN
174.483047	NaN
177.838486	NaN
181.193939	NaN
184.549377	NaN
187.904816	NaN
191.260269	NaN
194.615707	NaN
197.971146	NaN
201.326599	NaN
204.682037	NaN
208.037476	NaN
211.392929	NaN
214.748367	NaN
221.459244	NaN
228.170135	NaN
234.881027	NaN
241.591904	NaN
248.302795	NaN
255.013687	NaN
261.724579	NaN
268.435455	NaN
275.146332	NaN
281.857239	NaN
288.568115	NaN
295.278992	NaN
301.989899	NaN
308.700775	NaN
315.411652	NaN
322.122559	NaN
328.833435	NaN
335.544312	NaN
342.255219	NaN
348.966095	NaN
355.676971	NaN
362.387878	NaN
369.098755	NaN
375.809631	NaN
382.520538	NaN
389.231415	NaN
395.942291	NaN
402.653198	NaN
409.364075	NaN
416.074951	NaN
422.785858	NaN
429.496735	NaN
442.918488	NaN
456.340271	NaN
469.762054	NaN
483.183807	NaN
496.605591	NaN
510.027374	NaN
523.449158	NaN
536.870911	NaN
550.292664	NaN
563.714478	NaN
577.136230	NaN
590.557983	NaN
603.979797	NaN
617.401550	NaN
630.823303	NaN
644.245117	NaN
657.666870	NaN
671.088623	NaN
684.510437	NaN
697.932190	NaN
711.353943	NaN
724.775757	NaN
738.197510	NaN
751.619263	NaN
765.041077	NaN
778.462830	NaN
791.884583	NaN
805.306396	NaN
818.728149	NaN
832.149902	NaN
845.571716	NaN
858.993469	NaN
885.836975	NaN
912.680542	NaN
939.524109	NaN
966.367615	NaN
993.211182	NaN
1020.054749	NaN
1046.898315	NaN
1073.741821	NaN
1100.585327	NaN
1127.428955	NaN
1154.272461	NaN
1181.115967	NaN
1207.959595	NaN
1234.803101	NaN
1261.646606	NaN
1288.490234	NaN
1315.333740	NaN
1342.177246	NaN
1369.020874	NaN
1395.864380	NaN
1422.707886	NaN
1449.551514	NaN
1476.395020	NaN
1503.238525	NaN
1530.082153	NaN
1556.925659	NaN
1583.769165	NaN
1610.612793	NaN
1637.456299	NaN
1664.299805	NaN
1691.143433	NaN
1717.986938	NaN
1771.673950	NaN
1825.361084	NaN
1879.048218	NaN
1932.735229	NaN
1986.422363	NaN
2040.109497	NaN
2093.796631	NaN
2147.483643	NaN
2201.170654	NaN
2254.857910	NaN
2308.544922	NaN
2362.231934	NaN
2415.919189	NaN
2469.606201	NaN
2523.293213	NaN
2576.980469	NaN
2630.667480	NaN
2684.354492	NaN
2738.041748	NaN
2791.728760	NaN
2845.415771	NaN
2899.103027	NaN
2952.790039	NaN
3006.477051	NaN
3060.164307	NaN
3113.851318	NaN
3167.538330	NaN
3221.225586	NaN
3274.912598	NaN
3328.599609	NaN
3382.286865	NaN
3435.973877	NaN
0.000000	NaN
0.000000	NaN
0.000000	NaN
0.000000	NaN
0.000000	NaN
0.000000	NaN
0.000000	NaN
0.000000	NaN
0.000000	NaN
0.000000	NaN
0.000000	NaN
0.000000	NaN
0.000000	NaN
0.000000	NaN
0.000000	NaN
0.000000	NaN
0.000000	NaN
0.000000	NaN
0.000000	NaN
0.000000	NaN
0.000000	NaN
0.000000	NaN
0.000000	NaN
0.000000	NaN
0.000000	NaN
0.000000	NaN
0.000000	NaN
0.000000	NaN
0.000000	NaN
0.000000	NaN
0.000000	NaN
0.000000	NaN

Count Rate History (KHz)  CR CHA / CR CHB
0.000000	91.390610	93.526840
0.104858	95.033646	96.836090
0.209715	107.622147	109.443665
0.314573	109.529495	107.879639
0.419430	104.808807	104.179382
0.524288	90.827942	96.349716
0.629146	112.934113	114.927292
0.734003	115.156174	111.675262
0.838861	125.865936	131.340027
0.943718	113.220215	114.946365
1.048576	106.649399	105.915070
1.153434	104.560852	106.840134
1.258291	102.767944	103.769302
1.363149	98.714828	99.611282
1.468006	95.281601	98.104477
1.572864	134.067535	134.925842
1.677722	101.671219	103.092194
1.782579	101.823807	101.222992
1.887437	113.382339	113.897324
1.992294	102.672577	105.581284
2.097152	126.962662	127.830505
2.202010	104.751587	103.206635
2.306867	103.273392	104.808807
2.411725	133.218765	144.844055
2.516582	129.871368	120.401382
2.621440	104.284286	101.604462
2.726298	108.098984	111.303329
2.831155	138.149261	137.071609
2.936013	153.903961	158.538818
3.040870	115.013123	124.406815
3.145728	153.656006	147.743225
3.250586	101.985931	109.062195
3.355443	123.195648	118.808746
3.460301	116.310120	115.804672
3.565158	106.096268	109.109879
3.670016	124.740601	122.680664
3.774874	106.630325	110.092163
3.879731	97.198486	99.134445
3.984589	104.808807	104.093552
4.089446	131.464005	133.028030
4.194304	142.421722	149.068832
4.299162	156.965256	156.488419
4.404019	98.209381	100.584030
4.508877	137.710571	143.289566
4.613734	103.158951	102.643967
4.718592	110.626221	116.100311
4.823450	105.447769	104.045868
4.928307	110.826492	113.420486
5.033165	103.082657	102.596283
5.138022	85.878372	88.787079
5.242880	84.791183	86.069107
5.347738	97.837448	92.916489
5.452595	105.962753	106.344223
5.557453	108.852386	109.434128
5.662310	114.536285	114.870071
5.767168	96.778870	98.409653
5.872026	100.564957	107.383728
5.976883	103.034973	101.175308
6.081741	103.092194	100.545883
6.186598	105.543137	111.665726
6.291456	99.000931	96.940994
6.396314	105.590820	106.363297
6.501171	98.438263	95.968246
6.606029	99.897385	101.099014
6.710886	87.795258	86.641312
6.815744	110.378265	110.797882
6.920602	101.852417	103.206635
7.025459	113.649368	115.213394
7.130317	109.291077	115.852356
7.235174	113.115311	111.665726
7.340032	97.503662	95.281601
7.444890	106.725693	103.673935
7.549747	102.510452	105.857849
7.654605	106.945038	101.222992
7.759462	117.702484	116.539001
7.864320	106.725693	107.460022
7.969178	102.109909	103.025436
8.074035	95.920563	95.939636
8.178893	114.994049	119.590759
8.283750	114.259720	112.190247
8.388608	88.806152	90.675354
8.493466	100.469589	100.708008
8.598323	105.371475	106.687546
8.703181	99.925995	97.866058
8.808038	85.315704	85.048676
8.912896	81.272125	80.928802
9.017754	99.868774	99.782944
9.122611	109.043121	111.141205
9.227469	128.860474	136.098862
9.332326	102.214813	98.304749
9.437184	118.541718	123.510361
9.542042	99.105835	99.554062
9.646899	91.676712	92.344284
9.751757	102.815628	105.628967
9.856614	121.145248	122.070312
9.961472	123.605728	124.378204
10.066330	103.778839	104.904175
10.171187	117.902756	121.679306
10.276045	99.201202	95.701218
10.380902	102.777481	105.981827
10.485760	102.176666	102.815628
10.590618	84.247589	83.789825
10.695475	93.603134	95.710754
10.800333	106.916428	104.961395
10.905190	126.934052	134.334564
11.010048	115.709305	113.620758
11.114906	110.263824	108.423233
11.219763	111.789703	112.876892
11.324621	99.887848	101.642609
11.429478	96.454620	94.022751
11.534336	106.344223	107.250214
11.639194	102.691650	106.163025
11.744051	117.254257	113.916397
11.848909	93.879700	92.668533
11.953766	104.217529	108.242035
12.058624	87.080002	84.848404
12.163482	84.590912	86.441040
12.268339	110.473633	107.717514
12.373197	90.427399	91.352463
12.478054	98.772049	105.981827
12.582912	107.431412	101.852417
12.687770	108.633041	107.870102
12.792627	90.913773	91.962814
12.897485	105.018616	103.282928
13.002342	84.829330	84.104538
13.107200	89.483261	88.043213
13.212058	96.435547	98.066330
13.316915	91.447830	89.454651
13.421773	76.532364	76.942444
13.526630	101.804733	104.064941
13.631488	111.474991	113.983154
13.736346	93.927383	90.532303
13.841203	114.355087	112.838745
13.946061	93.421936	98.009109
14.050918	109.891891	111.036301
14.155776	102.910995	101.661682
14.260634	115.070343	124.711990
14.365491	90.427399	85.506439
14.470349	108.900070	110.149384
14.575206	101.766586	96.492767
14.680064	121.555328	128.574371
14.784922	80.461502	81.930161
14.889779	97.208023	94.795227
14.994637	117.073059	120.000839
15.099494	118.284225	121.183395
15.204352	96.273422	97.837448
15.309210	116.033554	117.435455
15.414067	94.213486	92.649460
15.518925	113.973618	113.477707
15.623782	109.119415	108.633041
15.728640	100.536346	98.924637
15.833498	88.682175	86.154938
15.938355	98.476410	102.071762
16.043213	101.861954	102.787018
16.148070	124.530792	125.923157
16.252928	143.823624	141.983032
16.357786	125.045776	134.029388
16.462643	128.870010	129.346848
16.567501	151.681900	151.996613
16.672358	140.352249	145.330429
16.777216	152.006149	155.115128
16.882074	96.006393	96.702576
16.986931	100.851059	100.746155
17.091789	110.187531	108.308792
17.196646	128.669739	131.568909
17.301504	130.805969	131.254196
17.406362	98.390579	99.172592
17.511219	104.427338	105.390549
17.616077	115.804672	124.053955
17.720934	119.056702	114.183426
17.825792	97.246170	95.920563
17.930650	139.017105	142.345428
18.035507	108.318329	105.924606
18.140365	102.529526	102.500916
18.245222	121.231079	124.015808
18.350080	118.818283	115.079880
18.454938	115.604401	120.811462
18.559795	116.777420	118.379593
18.664653	120.544434	125.389099
18.769510	91.962814	87.509155
18.874368	87.223053	86.641312
18.979226	88.491440	88.090897
19.084083	111.036301	113.029480
19.188941	93.669891	91.695786
19.293798	105.686188	107.402802
19.398656	119.342804	121.774673
19.503514	79.994202	78.077316
19.608371	102.796555	107.908249
19.713229	97.236633	93.803406
