1/9/2026	9:39 AM
Pseudo Cross Correlation
Scattering angle:	130.0
Duration (s):	20
Wavelength (nm):	632.8
Refractive index:	1.330
Viscosity (mPas):	0.825
Temperature (K):	301.6
Laser intensity (mW):	8.495686
Average Count rate  A (kHz):	78.3
Average Count rate  B (kHz):	76.8
Intercept:	0.8487
Cumulant 1st	117.17
Cumulant 2nd	112.54	23.95
Cumulant 3rd	111.01	32.41

Lag time (s)         g2-1
1.250000E-8	0.805219
2.500000E-8	0.832072
3.750000E-8	0.849527
5.000000E-8	0.829387
6.250000E-8	0.862953
7.500000E-8	0.824687
8.750000E-8	0.831401
1.000000E-7	0.860268
1.125000E-7	0.848855
1.250000E-7	0.851541
1.375000E-7	0.895177
1.500000E-7	0.813275
1.625000E-7	0.832743
1.750000E-7	0.908604
1.875000E-7	0.847513
2.000000E-7	0.935458
2.125000E-7	0.881751
2.250000E-7	0.831401
2.375000E-7	0.841471
2.500000E-7	0.920017
2.625000E-7	0.836771
2.750000E-7	0.842142
2.875000E-7	0.742785
3.000000E-7	0.856240
3.125000E-7	0.856911
3.250000E-7	0.800519
3.375000E-7	0.858925
3.500000E-7	0.844156
3.625000E-7	0.878394
3.750000E-7	0.922031
3.875000E-7	0.846170
4.000000E-7	0.889807
4.125000E-7	0.848184
4.250000E-7	0.828044
4.375000E-7	0.826701
4.500000E-7	0.829387
4.625000E-7	0.844827
4.750000E-7	0.903234
4.875000E-7	0.906590
5.000000E-7	0.817974
5.125000E-7	0.838114
5.250000E-7	0.819988
5.375000E-7	0.858925
5.500000E-7	0.824016
5.625000E-7	0.789107
5.750000E-7	0.817303
5.875000E-7	0.822673
6.000000E-7	0.805890
6.125000E-7	0.890478
6.250000E-7	0.833415
6.375000E-7	0.904576
6.500000E-7	0.830058
6.625000E-7	0.911961
6.750000E-7	0.788435
6.875000E-7	0.824016
7.000000E-7	0.840128
7.125000E-7	0.869667
7.250000E-7	0.836771
7.375000E-7	0.846170
7.500000E-7	0.895177
7.625000E-7	0.866981
7.750000E-7	0.834086
7.875000E-7	0.819317
8.000000E-7	0.848855
8.250000E-7	0.830058
8.500000E-7	0.839121
8.750000E-7	0.854562
9.000000E-7	0.852883
9.250000E-7	0.832072
9.500000E-7	0.848184
9.750000E-7	0.822002
1.000000E-6	0.850198
1.025000E-6	0.873359
1.050000E-6	0.801191
1.075000E-6	0.821666
1.100000E-6	0.836436
1.125000E-6	0.821331
1.150000E-6	0.891150
1.175000E-6	0.824352
1.200000E-6	0.871345
1.225000E-6	0.831401
1.250000E-6	0.864296
1.275000E-6	0.850534
1.300000E-6	0.847513
1.325000E-6	0.832408
1.350000E-6	0.845834
1.375000E-6	0.834422
1.400000E-6	0.812603
1.425000E-6	0.828715
1.450000E-6	0.868660
1.475000E-6	0.876716
1.500000E-6	0.842813
1.525000E-6	0.846506
1.550000E-6	0.865639
1.575000E-6	0.826366
1.600000E-6	0.839792
1.650000E-6	0.872352
1.700000E-6	0.843820
1.750000E-6	0.851373
1.800000E-6	0.905919
1.850000E-6	0.821331
1.900000E-6	0.870506
1.950000E-6	0.842813
2.000000E-6	0.838450
2.050000E-6	0.860772
2.100000E-6	0.830562
2.150000E-6	0.808240
2.200000E-6	0.842478
2.250000E-6	0.836939
2.300000E-6	0.807736
2.350000E-6	0.815792
2.400000E-6	0.866814
2.450000E-6	0.847177
2.500000E-6	0.854226
2.550000E-6	0.828883
2.600000E-6	0.826198
2.650000E-6	0.819820
2.700000E-6	0.853051
2.750000E-6	0.857415
2.800000E-6	0.856744
2.850000E-6	0.853890
2.900000E-6	0.866646
2.950000E-6	0.878730
3.000000E-6	0.838785
3.050000E-6	0.867485
3.100000E-6	0.822841
3.150000E-6	0.863121
3.200000E-6	0.857918
3.300000E-6	0.838282
3.400000E-6	0.854646
3.500000E-6	0.835093
3.600000E-6	0.850702
3.700000E-6	0.853471
3.800000E-6	0.818478
3.900000E-6	0.847345
4.000000E-6	0.825610
4.100000E-6	0.841890
4.200000E-6	0.838534
4.300000E-6	0.840883
4.400000E-6	0.831988
4.500000E-6	0.830981
4.600000E-6	0.811261
4.700000E-6	0.857583
4.800000E-6	0.838785
4.900000E-6	0.845415
5.000000E-6	0.840212
5.100000E-6	0.837359
5.200000E-6	0.850282
5.300000E-6	0.849275
5.400000E-6	0.855653
5.500000E-6	0.837611
5.600000E-6	0.824603
5.700000E-6	0.826282
5.800000E-6	0.826953
5.900000E-6	0.860772
6.000000E-6	0.853639
6.100000E-6	0.828464
6.200000E-6	0.835093
6.300000E-6	0.825023
6.400000E-6	0.861191
6.600000E-6	0.846590
6.800000E-6	0.829513
7.000000E-6	0.822086
7.200000E-6	0.840128
7.400000E-6	0.824981
7.600000E-6	0.819233
7.800000E-6	0.832659
8.000000E-6	0.822799
8.200000E-6	0.819862
8.400000E-6	0.823093
8.600000E-6	0.824268
8.800000E-6	0.816002
9.000000E-6	0.822044
9.200000E-6	0.833331
9.400000E-6	0.833792
9.600000E-6	0.829009
9.800000E-6	0.823135
1.000000E-5	0.813317
1.020000E-5	0.821037
1.040000E-5	0.819233
1.060000E-5	0.827289
1.080000E-5	0.813652
1.100000E-5	0.822715
1.120000E-5	0.821079
1.140000E-5	0.816422
1.160000E-5	0.825946
1.180000E-5	0.812436
1.200000E-5	0.818897
1.220000E-5	0.821792
1.240000E-5	0.825443
1.260000E-5	0.830604
1.280000E-5	0.826785
1.320000E-5	0.824855
1.360000E-5	0.821058
1.400000E-5	0.815247
1.440000E-5	0.814722
1.480000E-5	0.808303
1.520000E-5	0.817009
1.560000E-5	0.815058
1.600000E-5	0.805533
1.640000E-5	0.811617
1.680000E-5	0.809855
1.720000E-5	0.809394
1.760000E-5	0.810757
1.800000E-5	0.816757
1.840000E-5	0.801862
1.880000E-5	0.799365
1.920000E-5	0.806750
1.960000E-5	0.809016
2.000000E-5	0.808764
2.040000E-5	0.808659
2.080000E-5	0.808974
2.120000E-5	0.795589
2.160000E-5	0.795484
2.200000E-5	0.781638
2.240000E-5	0.810568
2.280000E-5	0.804463
2.320000E-5	0.794100
2.360000E-5	0.793386
2.400000E-5	0.802617
2.440000E-5	0.785142
2.480000E-5	0.796869
2.520000E-5	0.785708
2.560000E-5	0.798841
2.640000E-5	0.786526
2.720000E-5	0.786180
2.800000E-5	0.791771
2.880000E-5	0.788205
2.960000E-5	0.787848
3.040000E-5	0.773351
3.120000E-5	0.776666
3.200000E-5	0.771505
3.280000E-5	0.767372
3.360000E-5	0.763648
3.440000E-5	0.774610
3.520000E-5	0.761918
3.600000E-5	0.765274
3.680000E-5	0.765327
3.760000E-5	0.767540
3.840000E-5	0.764655
3.920000E-5	0.760260
4.000000E-5	0.754785
4.080000E-5	0.765369
4.160000E-5	0.752477
4.240000E-5	0.749414
4.320000E-5	0.752403
4.400000E-5	0.751596
4.480000E-5	0.751585
4.560000E-5	0.751145
4.640000E-5	0.751250
4.720000E-5	0.740403
4.800000E-5	0.744788
4.880000E-5	0.738840
4.960000E-5	0.745900
5.040000E-5	0.738106
5.120000E-5	0.740361
5.280000E-5	0.733015
5.440000E-5	0.730608
5.600000E-5	0.723633
5.760000E-5	0.717863
5.920000E-5	0.715865
6.080000E-5	0.719699
6.240000E-5	0.714501
6.400000E-5	0.712770
6.560000E-5	0.705176
6.720000E-5	0.704677
6.880000E-5	0.703781
7.040000E-5	0.703298
7.200000E-5	0.692635
7.360000E-5	0.693343
7.520000E-5	0.692280
7.680000E-5	0.687900
7.840000E-5	0.683646
8.000000E-5	0.684633
8.160000E-5	0.678146
8.320000E-5	0.672204
8.480000E-5	0.672823
8.640000E-5	0.668297
8.800000E-5	0.665113
8.960000E-5	0.663583
9.120000E-5	0.666966
9.280000E-5	0.660087
9.440000E-5	0.652870
9.600000E-5	0.653945
9.760000E-5	0.647998
9.920000E-5	0.651323
0.000101	0.638526
0.000102	0.639618
0.000106	0.635556
0.000109	0.633000
0.000112	0.626948
0.000115	0.622891
0.000118	0.620656
0.000122	0.604060
0.000125	0.605665
0.000128	0.597124
0.000131	0.596812
0.000134	0.592893
0.000138	0.581708
0.000141	0.579773
0.000144	0.575498
0.000147	0.570477
0.000150	0.562009
0.000154	0.558195
0.000157	0.553776
0.000160	0.552815
0.000163	0.548381
0.000166	0.538134
0.000170	0.534471
0.000173	0.527692
0.000176	0.526203
0.000179	0.519647
0.000182	0.517754
0.000186	0.512226
0.000189	0.506392
0.000192	0.504331
0.000195	0.500547
0.000198	0.495114
0.000202	0.490075
0.000205	0.485971
0.000211	0.480637
0.000218	0.473303
0.000224	0.464133
0.000230	0.454767
0.000237	0.449537
0.000243	0.440580
0.000250	0.434405
0.000256	0.430048
0.000262	0.419476
0.000269	0.412568
0.000275	0.403811
0.000282	0.400051
0.000288	0.391892
0.000294	0.384028
0.000301	0.379651
0.000307	0.371724
0.000314	0.367660
0.000320	0.360665
0.000326	0.357066
0.000333	0.350836
0.000339	0.343836
0.000346	0.337686
0.000352	0.332897
0.000358	0.327162
0.000365	0.320822
0.000371	0.316434
0.000378	0.312521
0.000384	0.306180
0.000390	0.297963
0.000397	0.295563
0.000403	0.290117
0.000410	0.285718
0.000422	0.278578
0.000435	0.269989
0.000448	0.260858
0.000461	0.251772
0.000474	0.243560
0.000486	0.235536
0.000499	0.227373
0.000512	0.219881
0.000525	0.213676
0.000538	0.207179
0.000550	0.200153
0.000563	0.192391
0.000576	0.187121
0.000589	0.180758
0.000602	0.174380
0.000614	0.169790
0.000627	0.165333
0.000640	0.157939
0.000653	0.153048
0.000666	0.148254
0.000678	0.143798
0.000691	0.139484
0.000704	0.133781
0.000717	0.130719
0.000730	0.125344
0.000742	0.124333
0.000755	0.120084
0.000768	0.113519
0.000781	0.111444
0.000794	0.107859
0.000806	0.104144
0.000819	0.101408
0.000845	0.095599
0.000870	0.089932
0.000896	0.083755
0.000922	0.078452
0.000947	0.074355
0.000973	0.069429
0.000998	0.065906
0.001024	0.062023
0.001050	0.059660
0.001075	0.054765
0.001101	0.051850
0.001126	0.049045
0.001152	0.047428
0.001178	0.045501
0.001203	0.043297
0.001229	0.039306
0.001254	0.038045
0.001280	0.036761
0.001306	0.035267
0.001331	0.034883
0.001357	0.032940
0.001382	0.030513
0.001408	0.030809
0.001434	0.027788
0.001459	0.027429
0.001485	0.025052
0.001510	0.023900
0.001536	0.021943
0.001562	0.021491
0.001587	0.020105
0.001613	0.019542
0.001638	0.018722
0.001690	0.018520
0.001741	0.016053
0.001792	0.015186
0.001843	0.012060
0.001894	0.011036
0.001946	0.009045
0.001997	0.007094
0.002048	0.005963
0.002099	0.005139
0.002150	0.005850
0.002202	0.005270
0.002253	0.005343
0.002304	0.004906
0.002355	0.004945
0.002406	0.005227
0.002458	0.007311
0.002509	0.007109
0.002560	0.008176
0.002611	0.008481
0.002662	0.007672
0.002714	0.006696
0.002765	0.006915
0.002816	0.007983
0.002867	0.008455
0.002918	0.008625
0.002970	0.008278
0.003021	0.008702
0.003072	0.007712
0.003123	0.007071
0.003174	0.006674
0.003226	0.006191
0.003277	0.005759
0.003379	0.003723
0.003482	0.002614
0.003584	0.002298
0.003686	0.001809
0.003789	0.001506
0.003891	0.000733
0.003994	0.000498
0.004096	0.000577
0.004198	0.001392
0.004301	0.002239
0.004403	0.001949
0.004506	0.000457
0.004608	0.000316
0.004710	-0.002065
0.004813	-0.003918
0.004915	-0.004334
0.005018	-0.004570
0.005120	-0.003654
0.005222	-0.002737
0.005325	-0.002513
0.005427	-0.002045
0.005530	-0.002179
0.005632	-0.001792
0.005734	-0.002186
0.005837	-0.002716
0.005939	-0.003696
0.006042	-0.004551
0.006144	-0.004257
0.006246	-0.004555
0.006349	-0.004103
0.006451	-0.004317
0.006554	-0.004086
0.006758	-0.003298
0.006963	-0.003830
0.007168	-0.002811
0.007373	-1.600647E-5
0.007578	0.001578
0.007782	0.000989
0.007987	-0.000213
0.008192	-0.000822
0.008397	0.000234
0.008602	0.000396
0.008806	0.001867
0.009011	0.004240
0.009216	0.005008
0.009421	0.006583
0.009626	0.006612
0.009830	0.004618
0.010035	0.003092
0.010240	0.002051
0.010445	0.000458
0.010650	-0.002284
0.010854	-0.003670
0.011059	-0.001960
0.011264	0.001245
0.011469	0.002289
0.011674	-0.000203
0.011878	-0.001892
0.012083	-0.003752
0.012288	-0.002643
0.012493	-0.000778
0.012698	0.000988
0.012902	-0.000301
0.013107	-0.000790
0.013517	-0.002642
0.013926	-0.003165
0.014336	-0.004506
0.014746	0.002248
0.015155	0.001731
0.015565	0.000613
0.015974	0.001364
0.016384	0.002997
0.016794	0.001935
0.017203	-0.002605
0.017613	-0.005015
0.018022	-0.004761
0.018432	-0.002347
0.018842	0.000840
0.019251	0.005021
0.019661	0.007816
0.020070	0.004648
0.020480	-0.004040
0.020890	-0.003895
0.021299	-0.001186
0.021709	-0.000479
0.022118	0.000932
0.022528	0.005524
0.022938	0.008605
0.023347	0.007061
0.023757	0.002873
0.024166	0.000184
0.024576	-0.001744
0.024986	-0.005317
0.025395	-0.004331
0.025805	-0.000565
0.026214	0.000656
0.027034	0.001373
0.027853	0.005383
0.028672	-0.001099
0.029491	-0.002827
0.030310	-0.001278
0.031130	0.002658
0.031949	0.012764
0.032768	0.011231
0.033587	0.001768
0.034406	0.002169
0.035226	-0.004480
0.036045	-0.002764
0.036864	0.000575
0.037683	0.002672
0.038502	0.006641
0.039322	0.007033
0.040141	0.003921
0.040960	0.005038
0.041779	0.002834
0.042598	-0.001016
0.043418	-0.001269
0.044237	0.001019
0.045056	0.000643
0.045875	0.001539
0.046694	0.001538
0.047514	0.003500
0.048333	5.876917E-5
0.049152	0.003797
0.049971	0.001828
0.050790	0.005577
0.051610	-6.486166E-5
0.052429	-0.005130
0.054067	0.005202
0.055706	-0.000931
0.057344	0.002126
0.058982	0.001648
0.060621	0.003424
0.062259	-0.001369
0.063898	-0.000572
0.065536	-0.002724
0.067174	0.001220
0.068813	0.009083
0.070451	-0.000503
0.072090	-0.001061
0.073728	0.002311
0.075366	0.003640
0.077005	0.008980
0.078643	0.007557
0.080282	-0.005578
0.081920	-6.782456E-5
0.083558	-0.000156
0.085197	-0.000948
0.086835	0.004140
0.088474	0.001210
0.090112	0.002234
0.091750	0.000852
0.093389	0.007485
0.095027	0.006250
0.096666	0.003735
0.098304	0.003626
0.099942	0.002575
0.101581	-0.005772
0.103219	-0.002077
0.104858	-0.000858
0.108134	0.002885
0.111411	0.000519
0.114688	0.003124
0.117965	0.004984
0.121242	0.000449
0.124518	0.003808
0.127795	0.002292
0.131072	0.000839
0.134349	0.000989
0.137626	-0.002696
0.140902	0.002190
0.144179	0.004887
0.147456	0.002114
0.150733	0.001778
0.154010	0.000576
0.157286	0.005127
0.160563	0.000370
0.163840	-5.321821E-6
0.167117	0.000956
0.170394	0.000302
0.173670	0.002569
0.176947	0.002888
0.180224	-0.000912
0.183501	0.003398
0.186778	0.005333
0.190054	-0.000376
0.193331	-0.001096
0.196608	0.000707
0.199885	0.000388
0.203162	-0.002874
0.206438	-0.000587
0.209715	-0.005204
0.216269	-0.000639
0.222822	-0.002595
0.229376	-0.000105
0.235930	-0.000704
0.242483	0.001978
0.249037	0.004502
0.255590	0.002676
0.262144	-0.001473
0.268698	0.002239
0.275251	0.002387
0.281805	0.000964
0.288358	0.001374
0.294912	0.000412
0.301466	0.002264
0.308019	0.001930
0.314573	0.000423
0.321126	0.001087
0.327680	0.001673
0.334234	0.001378
0.340787	0.001248
0.347341	0.003801
0.353894	0.000628
0.360448	-0.001952
0.367002	-0.001321
0.373555	0.000151
0.380109	0.000989
0.386662	0.000222
0.393216	0.001027
0.399770	0.002447
0.406323	-0.000386
0.412877	0.001476
0.419430	-0.001559
0.432538	0.000501
0.445645	0.001556
0.458752	0.000970
0.471859	0.000781
0.484966	0.001773
0.498074	0.000501
0.511181	0.000847
0.524288	0.001985
0.537395	0.000723
0.550502	0.001034
0.563610	0.000765
0.576717	0.000412
0.589824	0.001756
0.602931	-0.001512
0.616038	0.001740
0.629146	-0.000518
0.642253	-0.000984
0.655360	0.002731
0.668467	0.001120
0.681574	-0.000182
0.694682	0.001732
0.707789	-0.001327
0.720896	-0.000399
0.734003	0.000823
0.747110	-0.000649
0.760218	-0.001019
0.773325	-3.531896E-5
0.786432	0.001063
0.799539	0.000537
0.812646	-0.000878
0.825754	-0.000293
0.838861	0.001576
0.865075	0.001208
0.891290	0.001271
0.917504	0.000441
0.943718	1.028018E-5
0.969933	0.002688
0.996147	0.000565
1.022362	0.001114
1.048576	0.000647
1.074790	0.001100
1.101005	0.000333
1.127219	0.001011
1.153434	-0.000894
1.179648	0.000669
1.205862	-0.000535
1.232077	-0.000153
1.258291	6.856831E-5
1.284506	-0.000499
1.310720	0.001183
1.336934	0.000314
1.363149	0.001052
1.389363	0.000294
1.415578	7.432518E-5
1.441792	0.001442
1.468006	-0.001341
1.494221	0.001144
1.520435	0.000759
1.546650	0.000927
1.572864	0.002151
1.599078	-7.512997E-6
1.625293	0.001321
1.651507	-0.001038
1.677722	0.000468
1.730150	6.711074E-6
1.782579	-0.000779
1.835008	0.000683
1.887437	-0.000234
1.939866	-0.000785
1.992294	-0.000165
2.044723	-0.000615
2.097152	-0.000226
2.149581	-2.830330E-6
2.202010	-0.000364
2.254438	-0.001296
2.306867	-0.002002
2.359296	-0.001095
2.411725	-7.818722E-5
2.464154	-0.001165
2.516582	0.001402
2.569011	-0.000524
2.621440	-0.000865
2.673869	1.786621E-5
2.726298	-0.000317
2.778726	-0.000510
2.831155	-0.000476
2.883584	0.000561
2.936013	-0.000307
2.988442	9.087579E-5
3.040870	-0.000549
3.093299	-0.000804
3.145728	-0.000505
3.198157	-0.001169
3.250586	0.000115
3.303015	-0.001349
3.355443	-0.001649
3.460301	-0.000603
3.565158	-0.000945
3.670016	-0.000861
3.774873	-0.000541
3.879731	-0.000671
3.984589	-0.000346
4.089447	-0.000543
4.194304	-0.000452
4.299161	-0.000628
4.404019	-0.000142
4.508877	-0.000295
4.613734	0.000184
4.718592	0.001003
4.823450	-0.000280
4.928307	-0.000387
5.033165	0.001037
5.138022	0.000412
5.242880	-0.000264
5.347738	0.000105
5.452595	0.000140
5.557453	-9.450870E-5
5.662311	0.000583
5.767168	0.000567
5.872025	0.000809
5.976883	0.001007
6.081741	0.000681
6.186598	0.000834
6.291456	0.001108
6.396314	0.000537
6.501171	-8.424860E-6
6.606029	0.000728
6.710886	-1.655747E-5
6.920601	0.000930
7.130317	-0.000306
7.340032	0.001213
7.549747	0.000715
7.759462	0.001160
7.969178	-0.000192
8.178893	-5.656464E-5
8.388608	0.000529
8.598323	0.000166
8.808039	0.001236
9.017754	0.001646
9.227468	0.000569
9.437184	0.000464
9.646899	-0.000138
9.856614	0.000651
10.066330	-0.001317
10.276045	-0.000228
10.485760	-0.000153
10.695476	-0.000216
10.905190	-0.000539
11.114905	-0.000703
11.324621	-0.000560
11.534336	-0.001438
11.744051	-0.000742
11.953767	-0.000349
12.163482	-0.000580
12.373197	-0.001150
12.582912	-0.000959
12.792627	-0.000692
13.002342	-0.001470
13.212058	0.000599
13.421773	0.000541
13.841203	0.000643
14.260633	0.000793
14.680064	0.001730
15.099494	0.001641
15.518925	0.000218
15.938355	0.000791
16.357786	-0.000158
16.777216	2.417185E-5
17.196646	-0.000370
17.616077	0.000522
18.035507	-0.000261
18.454937	4.909776E-5
18.874369	0.000000
19.293798	NaN
19.713228	NaN
20.132660	NaN
20.552090	NaN
20.971519	NaN
21.390951	NaN
21.810381	NaN
22.229811	NaN
22.649242	NaN
23.068672	NaN
23.488102	NaN
23.907534	NaN
24.326963	NaN
24.746393	NaN
25.165825	NaN
25.585255	NaN
26.004684	NaN
26.424116	NaN
26.843546	NaN
27.682405	NaN
28.521267	NaN
29.360128	NaN
30.198988	NaN
31.037849	NaN
31.876711	NaN
32.715572	NaN
33.554432	NaN
34.393291	NaN
35.232155	NaN
36.071014	NaN
36.909874	NaN
37.748737	NaN
38.587597	NaN
39.426456	NaN
40.265320	NaN
41.104179	NaN
41.943039	NaN
42.781902	NaN
43.620762	NaN
44.459621	NaN
45.298485	NaN
46.137344	NaN
46.976204	NaN
47.815067	NaN
48.653927	NaN
49.492786	NaN
50.331650	NaN
51.170509	NaN
52.009369	NaN
52.848232	NaN
53.687092	NaN
55.364811	NaN
57.042534	NaN
58.720257	NaN
60.397976	NaN
62.075699	NaN
63.753422	NaN
65.431145	NaN
67.108864	NaN
68.786583	NaN
70.464310	NaN
72.142029	NaN
73.819748	NaN
75.497475	NaN
77.175194	NaN
78.852913	NaN
80.530640	NaN
82.208359	NaN
83.886078	NaN
85.563805	NaN
87.241524	NaN
88.919243	NaN
90.596970	NaN
92.274689	NaN
93.952408	NaN
95.630135	NaN
97.307854	NaN
98.985573	NaN
100.663300	NaN
102.341019	NaN
104.018738	NaN
105.696465	NaN
107.374184	NaN
110.729622	NaN
114.085068	NaN
117.440514	NaN
120.795952	NaN
124.151398	NaN
127.506844	NaN
130.862289	NaN
134.217728	NaN
137.573166	NaN
140.928619	NaN
144.284058	NaN
147.639496	NaN
150.994949	NaN
154.350388	NaN
157.705826	NaN
161.061279	NaN
164.416718	NaN
167.772156	NaN
171.127609	NaN
174.483047	NaN
177.838486	NaN
181.193939	NaN
184.549377	NaN
187.904816	NaN
191.260269	NaN
194.615707	NaN
197.971146	NaN
201.326599	NaN
204.682037	NaN
208.037476	NaN
211.392929	NaN
214.748367	NaN
221.459244	NaN
228.170135	NaN
234.881027	NaN
241.591904	NaN
248.302795	NaN
255.013687	NaN
261.724579	NaN
268.435455	NaN
275.146332	NaN
281.857239	NaN
288.568115	NaN
295.278992	NaN
301.989899	NaN
308.700775	NaN
315.411652	NaN
322.122559	NaN
328.833435	NaN
335.544312	NaN
342.255219	NaN
348.966095	NaN
355.676971	NaN
362.387878	NaN
369.098755	NaN
375.809631	NaN
382.520538	NaN
389.231415	NaN
395.942291	NaN
402.653198	NaN
409.364075	NaN
416.074951	NaN
422.785858	NaN
429.496735	NaN
442.918488	NaN
456.340271	NaN
469.762054	NaN
483.183807	NaN
496.605591	NaN
510.027374	NaN
523.449158	NaN
536.870911	NaN
550.292664	NaN
563.714478	NaN
577.136230	NaN
590.557983	NaN
603.979797	NaN
617.401550	NaN
630.823303	NaN
644.245117	NaN
657.666870	NaN
671.088623	NaN
684.510437	NaN
697.932190	NaN
711.353943	NaN
724.775757	NaN
738.197510	NaN
751.619263	NaN
765.041077	NaN
778.462830	NaN
791.884583	NaN
805.306396	NaN
818.728149	NaN
832.149902	NaN
845.571716	NaN
858.993469	NaN
885.836975	NaN
912.680542	NaN
939.524109	NaN
966.367615	NaN
993.211182	NaN
1020.054749	NaN
1046.898315	NaN
1073.741821	NaN
1100.585327	NaN
1127.428955	NaN
1154.272461	NaN
1181.115967	NaN
1207.959595	NaN
1234.803101	NaN
1261.646606	NaN
1288.490234	NaN
1315.333740	NaN
1342.177246	NaN
1369.020874	NaN
1395.864380	NaN
1422.707886	NaN
1449.551514	NaN
1476.395020	NaN
1503.238525	NaN
1530.082153	NaN
1556.925659	NaN
1583.769165	NaN
1610.612793	NaN
1637.456299	NaN
1664.299805	NaN
1691.143433	NaN
1717.986938	NaN
1771.673950	NaN
1825.361084	NaN
1879.048218	NaN
1932.735229	NaN
1986.422363	NaN
2040.109497	NaN
2093.796631	NaN
2147.483643	NaN
2201.170654	NaN
2254.857910	NaN
2308.544922	NaN
2362.231934	NaN
2415.919189	NaN
2469.606201	NaN
2523.293213	NaN
2576.980469	NaN
2630.667480	NaN
2684.354492	NaN
2738.041748	NaN
2791.728760	NaN
2845.415771	NaN
2899.103027	NaN
2952.790039	NaN
3006.477051	NaN
3060.164307	NaN
3113.851318	NaN
3167.538330	NaN
3221.225586	NaN
3274.912598	NaN
3328.599609	NaN
3382.286865	NaN
3435.973877	NaN
0.000000	NaN
0.000000	NaN
0.000000	NaN
0.000000	NaN
0.000000	NaN
0.000000	NaN
0.000000	NaN
0.000000	NaN
0.000000	NaN
0.000000	NaN
0.000000	NaN
0.000000	NaN
0.000000	NaN
0.000000	NaN
0.000000	NaN
0.000000	NaN
0.000000	NaN
0.000000	NaN
0.000000	NaN
0.000000	NaN
0.000000	NaN
0.000000	NaN
0.000000	NaN
0.000000	NaN
0.000000	NaN
0.000000	NaN
0.000000	NaN
0.000000	NaN
0.000000	NaN
0.000000	NaN
0.000000	NaN
0.000000	NaN

Count Rate History (KHz)  CR CHA / CR CHB
0.000000	81.090927	79.326630
0.104858	88.052750	87.671280
0.209715	89.769363	86.936951
0.314573	69.541931	67.119598
0.419430	77.333450	75.559616
0.524288	87.299347	86.250305
0.629146	87.289810	88.834763
0.734003	85.439682	80.575943
0.838861	76.866150	73.251724
0.943718	86.021423	86.307526
1.048576	89.826584	90.436935
1.153434	85.391998	83.274841
1.258291	78.563690	78.516006
1.363149	67.882538	64.363480
1.468006	81.253052	77.648163
1.572864	106.840134	107.269287
1.677722	80.480576	82.721710
1.782579	80.366135	78.411102
1.887437	95.405579	95.453262
1.992294	76.684952	73.814392
2.097152	87.184906	86.717606
2.202010	87.127686	83.465576
2.306867	81.644058	79.298019
2.411725	85.725784	86.336136
2.516582	82.435608	79.431534
2.621440	77.733994	81.319809
2.726298	74.892044	70.352554
2.831155	68.788528	67.596436
2.936013	74.081421	69.103241
3.040870	73.080063	72.555542
3.145728	70.610046	71.039200
3.250586	74.119568	73.556900
3.355443	80.738068	77.705383
3.460301	86.164474	86.965561
3.565158	75.378418	73.966980
3.670016	79.565048	78.411102
3.774874	81.911087	78.611374
3.879731	66.080093	63.943863
3.984589	76.045990	74.253082
4.089446	77.466965	74.167252
4.194304	72.984695	71.887970
4.299162	68.197250	66.919327
4.404019	72.126389	69.847107
4.508877	72.116852	68.511963
4.613734	77.905655	78.315735
4.718592	77.676773	71.439743
4.823450	85.401535	88.977814
4.928307	86.240768	85.153580
5.033165	75.702667	76.599121
5.138022	75.159073	72.765350
5.242880	80.842972	79.355240
5.347738	68.931580	68.264008
5.452595	77.247620	74.605942
5.557453	69.828033	70.400238
5.662310	79.641342	75.817108
5.767168	71.601868	73.986053
5.872026	79.088211	74.043274
5.976883	68.578720	64.172745
6.081741	77.733994	74.081421
6.186598	75.464249	76.303482
6.291456	80.633163	80.337524
6.396314	79.965591	74.300766
6.501171	73.862076	73.223114
6.606029	82.178116	84.848404
6.710886	81.481934	80.022812
6.815744	79.622269	75.416565
6.920602	87.118149	85.496902
7.025459	84.524155	84.943771
7.130317	85.620880	83.799362
7.235174	81.539154	80.757141
7.340032	84.848404	85.067749
7.444890	84.619522	83.866119
7.549747	76.637268	81.501007
7.654605	93.679428	90.208054
7.759462	80.451965	78.935623
7.864320	86.021423	84.762573
7.969178	79.851151	76.799393
8.074035	75.988770	74.129105
8.178893	72.965622	74.853897
8.283750	75.025558	71.792603
8.388608	85.544586	85.659027
8.493466	90.084076	92.163086
8.598323	70.552826	65.250397
8.703181	75.578690	75.435638
8.808038	88.214874	88.558197
8.912896	74.949265	73.213577
9.017754	70.610046	66.080093
9.122611	77.991486	77.018738
9.227469	77.209473	78.744888
9.332326	82.721710	79.965591
9.437184	75.569153	76.436996
9.542042	74.234009	72.412491
9.646899	77.610016	76.436996
9.751757	79.822540	78.954697
9.856614	88.291168	89.035034
9.961472	83.703995	81.853867
10.066330	75.263977	75.025558
10.171187	68.101883	64.096451
10.276045	74.014664	70.524216
10.380902	74.539185	71.172714
10.485760	70.791245	70.676804
10.590618	80.976486	80.728531
10.695475	71.659088	68.607330
10.800333	78.048706	74.329376
10.905190	87.347031	87.890625
11.010048	77.877045	74.338913
11.114906	75.054169	76.293945
11.219763	83.255768	78.859329
11.324621	87.203979	85.906982
11.429478	81.224442	80.938339
11.534336	76.370239	70.915222
11.639194	69.599152	71.706772
11.744051	77.533722	71.125031
11.848909	78.744888	75.664520
11.953766	76.541901	75.311661
12.058624	73.909760	71.430206
12.163482	73.423386	70.848465
12.268339	77.142715	75.407028
12.373197	70.800781	71.802139
12.478054	85.554123	84.228516
12.582912	81.939697	81.100464
12.687770	71.582794	69.828033
12.792627	81.968307	79.689026
12.897485	71.287155	71.372986
13.002342	74.901581	76.570511
13.107200	77.724457	73.785782
13.212058	72.412491	69.141388
13.316915	71.763992	71.887970
13.421773	78.754425	75.159073
13.526630	75.244904	71.830750
13.631488	74.300766	72.011948
13.736346	83.675385	83.684921
13.841203	79.736710	80.165863
13.946061	73.080063	67.119598
14.050918	76.169968	72.965622
14.155776	68.950653	68.902969
14.260634	81.319809	80.204010
14.365491	88.548660	85.783005
14.470349	70.228577	69.427490
14.575206	80.718994	78.153610
14.680064	77.772141	77.905655
14.784922	78.592300	76.780319
14.889779	69.246292	63.838959
14.994637	73.947906	73.451996
15.099494	73.127747	73.585510
15.204352	73.785782	70.800781
15.309210	80.661774	81.405640
15.414067	83.417892	82.073212
15.518925	86.832047	89.139938
15.623782	79.441071	77.714920
15.728640	83.169937	80.528259
15.833498	77.304840	77.610016
15.938355	79.603195	78.363419
16.043213	81.577301	82.731247
16.148070	72.927475	71.096420
16.252928	85.849762	83.923340
16.357786	82.826614	83.084106
16.462643	78.620911	78.201294
16.567501	92.744827	89.797974
16.672358	81.787109	81.892014
16.777216	76.246262	74.138641
16.882074	79.660416	78.516006
16.986931	68.988800	66.576004
17.091789	74.710846	77.018738
17.196646	87.652206	81.472397
17.301504	75.244904	74.567795
17.406362	77.943802	74.529648
17.511219	84.524155	85.601807
17.616077	73.642731	71.859360
17.720934	63.982010	65.994263
17.825792	75.550079	71.830750
17.930650	66.795349	61.531067
18.035507	63.819885	63.304901
18.140365	80.623627	82.168579
18.245222	87.623596	82.874298
18.350080	76.961517	80.623627
18.454938	78.859329	76.122284
18.559795	76.694489	75.845718
18.664653	68.426132	66.795349
18.769510	80.041885	76.780319
18.874368	79.288483	78.077316
18.979226	77.476501	73.833466
19.084083	75.273514	74.882507
19.188941	74.005127	70.800781
19.293798	65.174103	61.044693
19.398656	71.372986	68.759918
19.503514	73.585510	74.825287
19.608371	74.930191	72.402954
19.713229	67.548752	69.942474
