1/9/2026	9:56 AM
Pseudo Cross Correlation
Scattering angle:	80.0
Duration (s):	20
Wavelength (nm):	632.8
Refractive index:	1.330
Viscosity (mPas):	0.823
Temperature (K):	301.7
Laser intensity (mW):	8.477986
Average Count rate  A (kHz):	101.5
Average Count rate  B (kHz):	104.5
Intercept:	0.8931
Cumulant 1st	118.88
Cumulant 2nd	110.76	30.41
Cumulant 3rd	110.27	32.65

Lag time (s)         g2-1
1.250000E-8	0.892824
2.500000E-8	0.882928
3.750000E-8	0.920229
5.000000E-8	0.918707
6.250000E-8	0.900818
7.500000E-8	0.882928
8.750000E-8	0.893205
1.000000E-7	0.872271
1.125000E-7	0.882548
1.250000E-7	0.888257
1.375000E-7	0.893966
1.500000E-7	0.893205
1.625000E-7	0.834970
1.750000E-7	0.893966
1.875000E-7	0.902340
2.000000E-7	0.853621
2.125000E-7	0.910333
2.250000E-7	0.869607
2.375000E-7	0.924416
2.500000E-7	0.937357
2.625000E-7	0.887496
2.750000E-7	0.888638
2.875000E-7	0.935835
3.000000E-7	0.884451
3.125000E-7	0.933551
3.250000E-7	0.883690
3.375000E-7	0.869987
3.500000E-7	0.905004
3.625000E-7	0.917184
3.750000E-7	0.918707
3.875000E-7	0.907669
4.000000E-7	0.869226
4.125000E-7	0.867323
4.250000E-7	0.876458
4.375000E-7	0.895108
4.500000E-7	0.866942
4.625000E-7	0.895869
4.750000E-7	0.917184
4.875000E-7	0.952582
5.000000E-7	0.889018
5.125000E-7	0.908430
5.250000E-7	0.934693
5.375000E-7	0.878742
5.500000E-7	0.927461
5.625000E-7	0.867704
5.750000E-7	0.878361
5.875000E-7	0.868465
6.000000E-7	0.885212
6.125000E-7	0.881406
6.250000E-7	0.880264
6.375000E-7	0.885593
6.500000E-7	0.879503
6.625000E-7	0.935073
6.750000E-7	0.883690
6.875000E-7	0.908049
7.000000E-7	0.864659
7.125000E-7	0.938118
7.250000E-7	0.850956
7.375000E-7	0.881025
7.500000E-7	0.931267
7.625000E-7	0.840679
7.750000E-7	0.859711
7.875000E-7	0.873032
8.000000E-7	0.880645
8.250000E-7	0.886164
8.500000E-7	0.881786
8.750000E-7	0.864849
9.000000E-7	0.889209
9.250000E-7	0.879122
9.500000E-7	0.886735
9.750000E-7	0.868084
1.000000E-6	0.902530
1.025000E-6	0.905956
1.050000E-6	0.898534
1.075000E-6	0.892444
1.100000E-6	0.885973
1.125000E-6	0.923464
1.150000E-6	0.883499
1.175000E-6	0.932980
1.200000E-6	0.911094
1.225000E-6	0.908049
1.250000E-6	0.875126
1.275000E-6	0.905385
1.300000E-6	0.899295
1.325000E-6	0.873413
1.350000E-6	0.909952
1.375000E-6	0.877980
1.400000E-6	0.901388
1.425000E-6	0.885402
1.450000E-6	0.890160
1.475000E-6	0.914900
1.500000E-6	0.928793
1.525000E-6	0.890541
1.550000E-6	0.904814
1.575000E-6	0.873603
1.600000E-6	0.866942
1.650000E-6	0.902245
1.700000E-6	0.918326
1.750000E-6	0.901484
1.800000E-6	0.882167
1.850000E-6	0.916518
1.900000E-6	0.889875
1.950000E-6	0.889875
2.000000E-6	0.898819
2.050000E-6	0.883404
2.100000E-6	0.894442
2.150000E-6	0.919849
2.200000E-6	0.877790
2.250000E-6	0.892349
2.300000E-6	0.893205
2.350000E-6	0.912712
2.400000E-6	0.887115
2.450000E-6	0.893871
2.500000E-6	0.895394
2.550000E-6	0.896155
2.600000E-6	0.895013
2.650000E-6	0.909952
2.700000E-6	0.871985
2.750000E-6	0.878075
2.800000E-6	0.880454
2.850000E-6	0.880169
2.900000E-6	0.885498
2.950000E-6	0.894632
3.000000E-6	0.889875
3.050000E-6	0.900532
3.100000E-6	0.877029
3.150000E-6	0.888733
3.200000E-6	0.868845
3.300000E-6	0.889018
3.400000E-6	0.902245
3.500000E-6	0.898391
3.600000E-6	0.897249
3.700000E-6	0.882357
3.800000E-6	0.876934
3.900000E-6	0.865800
4.000000E-6	0.893443
4.100000E-6	0.887068
4.200000E-6	0.881263
4.300000E-6	0.893300
4.400000E-6	0.879408
4.500000E-6	0.886068
4.600000E-6	0.886211
4.700000E-6	0.890113
4.800000E-6	0.898486
4.900000E-6	0.892063
5.000000E-6	0.881549
5.100000E-6	0.888019
5.200000E-6	0.884356
5.300000E-6	0.884451
5.400000E-6	0.892539
5.500000E-6	0.896440
5.600000E-6	0.878789
5.700000E-6	0.886639
5.800000E-6	0.882453
5.900000E-6	0.883404
6.000000E-6	0.879836
6.100000E-6	0.879408
6.200000E-6	0.883499
6.300000E-6	0.884927
6.400000E-6	0.875173
6.600000E-6	0.888162
6.800000E-6	0.886354
7.000000E-6	0.885973
7.200000E-6	0.876386
7.400000E-6	0.871724
7.600000E-6	0.892396
7.800000E-6	0.876553
8.000000E-6	0.884261
8.200000E-6	0.880097
8.400000E-6	0.879408
8.600000E-6	0.878432
8.800000E-6	0.881810
9.000000E-6	0.882001
9.200000E-6	0.882405
9.400000E-6	0.872842
9.600000E-6	0.885807
9.800000E-6	0.869345
1.000000E-5	0.874721
1.020000E-5	0.886782
1.040000E-5	0.883666
1.060000E-5	0.876957
1.080000E-5	0.886592
1.100000E-5	0.872889
1.120000E-5	0.884403
1.140000E-5	0.866062
1.160000E-5	0.874507
1.180000E-5	0.878884
1.200000E-5	0.878813
1.220000E-5	0.885688
1.240000E-5	0.871748
1.260000E-5	0.871605
1.280000E-5	0.873127
1.320000E-5	0.866930
1.360000E-5	0.872104
1.400000E-5	0.871165
1.440000E-5	0.874995
1.480000E-5	0.872414
1.520000E-5	0.877397
1.560000E-5	0.877243
1.600000E-5	0.867299
1.640000E-5	0.883701
1.680000E-5	0.872806
1.720000E-5	0.870903
1.760000E-5	0.874745
1.800000E-5	0.869916
1.840000E-5	0.869036
1.880000E-5	0.875149
1.920000E-5	0.876589
1.960000E-5	0.866455
2.000000E-5	0.868156
2.040000E-5	0.869714
2.080000E-5	0.873437
2.120000E-5	0.872592
2.160000E-5	0.866609
2.200000E-5	0.865789
2.240000E-5	0.862910
2.280000E-5	0.855321
2.320000E-5	0.866336
2.360000E-5	0.865051
2.400000E-5	0.868643
2.440000E-5	0.870166
2.480000E-5	0.865729
2.520000E-5	0.858188
2.560000E-5	0.857260
2.640000E-5	0.860662
2.720000E-5	0.855976
2.800000E-5	0.858717
2.880000E-5	0.851081
2.960000E-5	0.856535
3.040000E-5	0.858236
3.120000E-5	0.854126
3.200000E-5	0.853133
3.280000E-5	0.857231
3.360000E-5	0.855536
3.440000E-5	0.851938
3.520000E-5	0.849636
3.600000E-5	0.850992
3.680000E-5	0.842095
3.760000E-5	0.852413
3.840000E-5	0.845931
3.920000E-5	0.845045
4.000000E-5	0.845205
4.080000E-5	0.845402
4.160000E-5	0.845491
4.240000E-5	0.844295
4.320000E-5	0.840073
4.400000E-5	0.832704
4.480000E-5	0.844325
4.560000E-5	0.845955
4.640000E-5	0.844985
4.720000E-5	0.834905
4.800000E-5	0.839561
4.880000E-5	0.834946
4.960000E-5	0.834536
5.040000E-5	0.833376
5.120000E-5	0.828048
5.280000E-5	0.831036
5.440000E-5	0.827128
5.600000E-5	0.827202
5.760000E-5	0.823818
5.920000E-5	0.821778
6.080000E-5	0.817981
6.240000E-5	0.814930
6.400000E-5	0.815064
6.560000E-5	0.812946
6.720000E-5	0.812798
6.880000E-5	0.810923
7.040000E-5	0.814114
7.200000E-5	0.807494
7.360000E-5	0.802585
7.520000E-5	0.804342
7.680000E-5	0.801259
7.840000E-5	0.801439
8.000000E-5	0.794880
8.160000E-5	0.796310
8.320000E-5	0.793401
8.480000E-5	0.794855
8.640000E-5	0.794086
8.800000E-5	0.789833
8.960000E-5	0.789447
9.120000E-5	0.786361
9.280000E-5	0.783115
9.440000E-5	0.784739
9.600000E-5	0.782422
9.760000E-5	0.776609
9.920000E-5	0.779184
0.000101	0.777248
0.000102	0.775746
0.000106	0.769716
0.000109	0.766324
0.000112	0.761489
0.000115	0.762931
0.000118	0.756985
0.000122	0.753405
0.000125	0.750730
0.000128	0.747373
0.000131	0.742616
0.000134	0.740095
0.000138	0.735952
0.000141	0.734584
0.000144	0.728597
0.000147	0.726628
0.000150	0.723019
0.000154	0.721151
0.000157	0.717426
0.000160	0.716095
0.000163	0.711172
0.000166	0.708826
0.000170	0.704736
0.000173	0.703368
0.000176	0.698522
0.000179	0.695267
0.000182	0.693375
0.000186	0.690168
0.000189	0.688810
0.000192	0.687789
0.000195	0.682405
0.000198	0.679138
0.000202	0.676594
0.000205	0.675440
0.000211	0.666880
0.000218	0.661505
0.000224	0.655638
0.000230	0.651689
0.000237	0.643495
0.000243	0.637934
0.000250	0.631745
0.000256	0.626672
0.000262	0.622110
0.000269	0.615030
0.000275	0.612347
0.000282	0.603772
0.000288	0.602169
0.000294	0.595166
0.000301	0.590554
0.000307	0.586657
0.000314	0.580932
0.000320	0.576563
0.000326	0.570711
0.000333	0.566331
0.000339	0.561460
0.000346	0.556917
0.000352	0.551756
0.000358	0.547374
0.000365	0.541158
0.000371	0.536544
0.000378	0.532676
0.000384	0.527834
0.000390	0.523663
0.000397	0.521317
0.000403	0.513068
0.000410	0.510810
0.000422	0.501925
0.000435	0.492204
0.000448	0.483181
0.000461	0.475593
0.000474	0.468082
0.000486	0.459595
0.000499	0.452290
0.000512	0.443108
0.000525	0.436682
0.000538	0.429392
0.000550	0.420418
0.000563	0.415140
0.000576	0.407507
0.000589	0.401689
0.000602	0.395243
0.000614	0.387821
0.000627	0.382132
0.000640	0.375671
0.000653	0.368833
0.000666	0.363700
0.000678	0.357439
0.000691	0.352437
0.000704	0.346185
0.000717	0.339006
0.000730	0.333569
0.000742	0.330473
0.000755	0.324846
0.000768	0.318662
0.000781	0.314908
0.000794	0.307891
0.000806	0.303477
0.000819	0.299087
0.000845	0.288664
0.000870	0.279376
0.000896	0.270186
0.000922	0.261615
0.000947	0.253360
0.000973	0.245143
0.000998	0.237606
0.001024	0.230432
0.001050	0.223830
0.001075	0.217001
0.001101	0.211021
0.001126	0.203002
0.001152	0.197681
0.001178	0.191297
0.001203	0.185842
0.001229	0.179602
0.001254	0.174984
0.001280	0.169091
0.001306	0.164407
0.001331	0.158517
0.001357	0.153969
0.001382	0.149053
0.001408	0.143912
0.001434	0.139548
0.001459	0.135867
0.001485	0.131952
0.001510	0.127667
0.001536	0.123609
0.001562	0.119976
0.001587	0.115938
0.001613	0.113055
0.001638	0.110159
0.001690	0.103371
0.001741	0.097986
0.001792	0.092443
0.001843	0.086292
0.001894	0.081551
0.001946	0.076207
0.001997	0.072287
0.002048	0.067835
0.002099	0.062973
0.002150	0.059361
0.002202	0.056142
0.002253	0.051505
0.002304	0.048276
0.002355	0.044564
0.002406	0.041737
0.002458	0.038861
0.002509	0.036437
0.002560	0.033488
0.002611	0.030870
0.002662	0.027745
0.002714	0.026620
0.002765	0.024749
0.002816	0.024020
0.002867	0.022052
0.002918	0.021486
0.002970	0.020927
0.003021	0.020713
0.003072	0.019405
0.003123	0.018383
0.003174	0.017819
0.003226	0.017469
0.003277	0.016107
0.003379	0.014720
0.003482	0.012360
0.003584	0.009832
0.003686	0.008344
0.003789	0.005929
0.003891	0.004358
0.003994	0.001736
0.004096	-0.000863
0.004198	-0.002044
0.004301	-0.003425
0.004403	-0.004766
0.004506	-0.005564
0.004608	-0.006671
0.004710	-0.006484
0.004813	-0.006302
0.004915	-0.006930
0.005018	-0.007706
0.005120	-0.008469
0.005222	-0.009225
0.005325	-0.008938
0.005427	-0.009107
0.005530	-0.009218
0.005632	-0.008049
0.005734	-0.008356
0.005837	-0.008186
0.005939	-0.008807
0.006042	-0.008594
0.006144	-0.007760
0.006246	-0.007059
0.006349	-0.006895
0.006451	-0.006836
0.006554	-0.007856
0.006758	-0.009033
0.006963	-0.009281
0.007168	-0.009391
0.007373	-0.009012
0.007578	-0.007854
0.007782	-0.005130
0.007987	-0.002962
0.008192	-0.001717
0.008397	0.000721
0.008602	0.004014
0.008806	0.005359
0.009011	0.005118
0.009216	0.004633
0.009421	0.004295
0.009626	0.003148
0.009830	0.003179
0.010035	0.002420
0.010240	0.002358
0.010445	0.001596
0.010650	0.001756
0.010854	0.000506
0.011059	-0.000162
0.011264	0.000497
0.011469	0.001231
0.011674	0.002193
0.011878	0.001608
0.012083	0.001199
0.012288	0.001830
0.012493	0.000741
0.012698	0.000586
0.012902	0.002073
0.013107	0.003685
0.013517	0.003709
0.013926	0.005864
0.014336	0.006219
0.014746	0.005564
0.015155	0.006945
0.015565	0.003497
0.015974	0.000963
0.016384	0.003636
0.016794	0.005387
0.017203	0.006383
0.017613	0.005685
0.018022	0.000957
0.018432	-0.001332
0.018842	-0.005068
0.019251	-0.008226
0.019661	-0.008982
0.020070	-0.007933
0.020480	-0.003609
0.020890	-0.001287
0.021299	0.000684
0.021709	-0.000590
0.022118	0.001330
0.022528	0.003152
0.022938	0.005330
0.023347	0.007559
0.023757	0.008632
0.024166	0.005719
0.024576	0.002829
0.024986	0.004391
0.025395	0.007324
0.025805	0.005886
0.026214	0.006388
0.027034	0.006800
0.027853	-0.000712
0.028672	-0.009258
0.029491	-0.008781
0.030310	-0.001056
0.031130	0.001515
0.031949	-0.001195
0.032768	-0.001341
0.033587	-0.001393
0.034406	0.004827
0.035226	0.000774
0.036045	-0.003130
0.036864	-0.001913
0.037683	-0.003927
0.038502	-0.003628
0.039322	0.001204
0.040141	-0.000999
0.040960	-0.000537
0.041779	0.006339
0.042598	0.007593
0.043418	0.001799
0.044237	-0.003883
0.045056	-0.005055
0.045875	-0.001795
0.046694	-0.000340
0.047514	-0.005709
0.048333	-0.007506
0.049152	-0.003345
0.049971	0.004981
0.050790	0.007705
0.051610	0.002922
0.052429	0.004008
0.054067	0.006898
0.055706	0.006203
0.057344	-0.002135
0.058982	-0.005725
0.060621	-0.003148
0.062259	-0.005176
0.063898	-0.005040
0.065536	-0.010282
0.067174	-0.010739
0.068813	-0.003632
0.070451	0.001305
0.072090	-0.002325
0.073728	-0.004077
0.075366	-0.005064
0.077005	-0.009820
0.078643	-0.007336
0.080282	-0.004999
0.081920	0.006406
0.083558	0.017919
0.085197	0.007423
0.086835	-0.001964
0.088474	3.603404E-5
0.090112	-0.005409
0.091750	-0.002369
0.093389	-0.003067
0.095027	-0.006420
0.096666	0.001746
0.098304	0.002880
0.099942	0.007023
0.101581	0.002575
0.103219	-0.002705
0.104858	0.002558
0.108134	0.008078
0.111411	0.005342
0.114688	0.002053
0.117965	-0.008046
0.121242	-0.008363
0.124518	0.002767
0.127795	0.000805
0.131072	0.006290
0.134349	-0.009176
0.137626	-0.005504
0.140902	-0.000606
0.144179	0.003792
0.147456	0.000181
0.150733	0.001687
0.154010	0.003238
0.157286	0.004373
0.160563	-0.002640
0.163840	-0.005518
0.167117	0.004067
0.170394	0.007990
0.173670	0.000189
0.176947	0.001884
0.180224	0.005984
0.183501	-0.006730
0.186778	-0.002518
0.190054	-0.001006
0.193331	-0.002652
0.196608	0.002407
0.199885	0.001223
0.203162	0.004468
0.206438	0.002294
0.209715	-0.000710
0.216269	0.001232
0.222822	-0.001230
0.229376	0.002326
0.235930	-0.001199
0.242483	-0.000158
0.249037	0.002472
0.255590	-0.000625
0.262144	0.004902
0.268698	-0.002160
0.275251	0.006080
0.281805	0.006542
0.288358	-0.001093
0.294912	-0.007813
0.301466	-0.001543
0.308019	-0.003723
0.314573	0.001278
0.321126	-0.003970
0.327680	0.001507
0.334234	0.000700
0.340787	-0.002212
0.347341	-0.000516
0.353894	-0.000863
0.360448	0.004904
0.367002	0.001670
0.373555	-0.000309
0.380109	-0.006160
0.386662	-0.004001
0.393216	-0.003136
0.399770	0.000644
0.406323	-0.000160
0.412877	-0.002002
0.419430	-0.001394
0.432538	0.000443
0.445645	0.003053
0.458752	0.000511
0.471859	0.002924
0.484966	-0.000948
0.498074	-0.000691
0.511181	0.000128
0.524288	-0.000285
0.537395	-0.000561
0.550502	-0.005568
0.563610	-0.001272
0.576717	-0.003089
0.589824	-0.003383
0.602931	0.000466
0.616038	-0.000694
0.629146	7.001682E-5
0.642253	-0.002160
0.655360	0.001151
0.668467	0.003010
0.681574	0.001770
0.694682	-0.001047
0.707789	-0.000590
0.720896	-0.000273
0.734003	-0.005296
0.747110	-0.001475
0.760218	-0.001487
0.773325	-0.002820
0.786432	0.000454
0.799539	0.001795
0.812646	-0.000475
0.825754	0.001086
0.838861	0.000939
0.865075	0.001577
0.891290	-0.000329
0.917504	-0.000348
0.943718	0.001159
0.969933	0.003213
0.996147	0.000558
1.022362	-0.001896
1.048576	-0.000958
1.074790	0.000783
1.101005	0.000315
1.127219	-0.001242
1.153434	0.001591
1.179648	-0.001777
1.205862	0.001149
1.232077	-0.003212
1.258291	0.001600
1.284506	-0.001650
1.310720	0.000162
1.336934	0.001583
1.363149	-0.000938
1.389363	0.001889
1.415578	-0.000869
1.441792	-0.002446
1.468006	-0.001925
1.494221	-0.000930
1.520435	-0.003576
1.546650	0.001868
1.572864	-0.001865
1.599078	0.000640
1.625293	-0.002523
1.651507	-0.002930
1.677722	0.001701
1.730150	0.000737
1.782579	0.001126
1.835008	-0.001144
1.887437	-0.000485
1.939866	-0.000221
1.992294	-0.000720
2.044723	0.002681
2.097152	0.000195
2.149581	-0.001762
2.202010	-0.000152
2.254438	0.000417
2.306867	0.001033
2.359296	-0.000587
2.411725	0.001243
2.464154	-0.001020
2.516582	0.000362
2.569011	0.001651
2.621440	-0.002434
2.673869	0.000930
2.726298	-0.000624
2.778726	-0.001734
2.831155	0.001293
2.883584	0.002167
2.936013	0.000712
2.988442	-0.000356
3.040870	0.001486
3.093299	-0.000930
3.145728	0.000111
3.198157	0.001645
3.250586	0.000352
3.303015	-0.001548
3.355443	0.000692
3.460301	5.820696E-5
3.565158	-0.001832
3.670016	0.000571
3.774873	-0.000758
3.879731	-0.000342
3.984589	0.001202
4.089447	-3.626796E-5
4.194304	0.001252
4.299161	-0.001949
4.404019	-0.002774
4.508877	-0.001941
4.613734	-0.001452
4.718592	-0.000385
4.823450	-0.000664
4.928307	0.001409
5.033165	0.001241
5.138022	0.000924
5.242880	0.000403
5.347738	-0.000397
5.452595	-0.001173
5.557453	-0.001341
5.662311	-0.000936
5.767168	0.001451
5.872025	0.000191
5.976883	0.000828
6.081741	0.001325
6.186598	0.000503
6.291456	0.000560
6.396314	-0.001024
6.501171	-7.970945E-5
6.606029	-0.000917
6.710886	-0.000484
6.920601	8.930604E-5
7.130317	0.000138
7.340032	-0.001284
7.549747	0.000101
7.759462	-0.000493
7.969178	-0.000225
8.178893	-1.782605E-5
8.388608	-0.000599
8.598323	-0.000762
8.808039	0.002237
9.017754	0.000605
9.227468	0.000154
9.437184	-0.000357
9.646899	-0.000965
9.856614	0.000584
10.066330	0.001399
10.276045	-8.180486E-5
10.485760	-0.001422
10.695476	-0.000427
10.905190	0.000630
11.114905	0.001018
11.324621	-0.000335
11.534336	-0.000770
11.744051	0.002235
11.953767	-0.000610
12.163482	0.000358
12.373197	-0.000361
12.582912	-9.110795E-6
12.792627	0.000368
13.002342	0.000616
13.212058	-0.001275
13.421773	-0.001778
13.841203	0.000713
14.260633	0.000849
14.680064	0.000421
15.099494	-0.000423
15.518925	-0.000158
15.938355	0.001114
16.357786	-0.000978
16.777216	2.534110E-5
17.196646	0.000221
17.616077	-0.000993
18.035507	0.001532
18.454937	-0.000293
18.874369	0.000000
19.293798	NaN
19.713228	NaN
20.132660	NaN
20.552090	NaN
20.971519	NaN
21.390951	NaN
21.810381	NaN
22.229811	NaN
22.649242	NaN
23.068672	NaN
23.488102	NaN
23.907534	NaN
24.326963	NaN
24.746393	NaN
25.165825	NaN
25.585255	NaN
26.004684	NaN
26.424116	NaN
26.843546	NaN
27.682405	NaN
28.521267	NaN
29.360128	NaN
30.198988	NaN
31.037849	NaN
31.876711	NaN
32.715572	NaN
33.554432	NaN
34.393291	NaN
35.232155	NaN
36.071014	NaN
36.909874	NaN
37.748737	NaN
38.587597	NaN
39.426456	NaN
40.265320	NaN
41.104179	NaN
41.943039	NaN
42.781902	NaN
43.620762	NaN
44.459621	NaN
45.298485	NaN
46.137344	NaN
46.976204	NaN
47.815067	NaN
48.653927	NaN
49.492786	NaN
50.331650	NaN
51.170509	NaN
52.009369	NaN
52.848232	NaN
53.687092	NaN
55.364811	NaN
57.042534	NaN
58.720257	NaN
60.397976	NaN
62.075699	NaN
63.753422	NaN
65.431145	NaN
67.108864	NaN
68.786583	NaN
70.464310	NaN
72.142029	NaN
73.819748	NaN
75.497475	NaN
77.175194	NaN
78.852913	NaN
80.530640	NaN
82.208359	NaN
83.886078	NaN
85.563805	NaN
87.241524	NaN
88.919243	NaN
90.596970	NaN
92.274689	NaN
93.952408	NaN
95.630135	NaN
97.307854	NaN
98.985573	NaN
100.663300	NaN
102.341019	NaN
104.018738	NaN
105.696465	NaN
107.374184	NaN
110.729622	NaN
114.085068	NaN
117.440514	NaN
120.795952	NaN
124.151398	NaN
127.506844	NaN
130.862289	NaN
134.217728	NaN
137.573166	NaN
140.928619	NaN
144.284058	NaN
147.639496	NaN
150.994949	NaN
154.350388	NaN
157.705826	NaN
161.061279	NaN
164.416718	NaN
167.772156	NaN
171.127609	NaN
174.483047	NaN
177.838486	NaN
181.193939	NaN
184.549377	NaN
187.904816	NaN
191.260269	NaN
194.615707	NaN
197.971146	NaN
201.326599	NaN
204.682037	NaN
208.037476	NaN
211.392929	NaN
214.748367	NaN
221.459244	NaN
228.170135	NaN
234.881027	NaN
241.591904	NaN
248.302795	NaN
255.013687	NaN
261.724579	NaN
268.435455	NaN
275.146332	NaN
281.857239	NaN
288.568115	NaN
295.278992	NaN
301.989899	NaN
308.700775	NaN
315.411652	NaN
322.122559	NaN
328.833435	NaN
335.544312	NaN
342.255219	NaN
348.966095	NaN
355.676971	NaN
362.387878	NaN
369.098755	NaN
375.809631	NaN
382.520538	NaN
389.231415	NaN
395.942291	NaN
402.653198	NaN
409.364075	NaN
416.074951	NaN
422.785858	NaN
429.496735	NaN
442.918488	NaN
456.340271	NaN
469.762054	NaN
483.183807	NaN
496.605591	NaN
510.027374	NaN
523.449158	NaN
536.870911	NaN
550.292664	NaN
563.714478	NaN
577.136230	NaN
590.557983	NaN
603.979797	NaN
617.401550	NaN
630.823303	NaN
644.245117	NaN
657.666870	NaN
671.088623	NaN
684.510437	NaN
697.932190	NaN
711.353943	NaN
724.775757	NaN
738.197510	NaN
751.619263	NaN
765.041077	NaN
778.462830	NaN
791.884583	NaN
805.306396	NaN
818.728149	NaN
832.149902	NaN
845.571716	NaN
858.993469	NaN
885.836975	NaN
912.680542	NaN
939.524109	NaN
966.367615	NaN
993.211182	NaN
1020.054749	NaN
1046.898315	NaN
1073.741821	NaN
1100.585327	NaN
1127.428955	NaN
1154.272461	NaN
1181.115967	NaN
1207.959595	NaN
1234.803101	NaN
1261.646606	NaN
1288.490234	NaN
1315.333740	NaN
1342.177246	NaN
1369.020874	NaN
1395.864380	NaN
1422.707886	NaN
1449.551514	NaN
1476.395020	NaN
1503.238525	NaN
1530.082153	NaN
1556.925659	NaN
1583.769165	NaN
1610.612793	NaN
1637.456299	NaN
1664.299805	NaN
1691.143433	NaN
1717.986938	NaN
1771.673950	NaN
1825.361084	NaN
1879.048218	NaN
1932.735229	NaN
1986.422363	NaN
2040.109497	NaN
2093.796631	NaN
2147.483643	NaN
2201.170654	NaN
2254.857910	NaN
2308.544922	NaN
2362.231934	NaN
2415.919189	NaN
2469.606201	NaN
2523.293213	NaN
2576.980469	NaN
2630.667480	NaN
2684.354492	NaN
2738.041748	NaN
2791.728760	NaN
2845.415771	NaN
2899.103027	NaN
2952.790039	NaN
3006.477051	NaN
3060.164307	NaN
3113.851318	NaN
3167.538330	NaN
3221.225586	NaN
3274.912598	NaN
3328.599609	NaN
3382.286865	NaN
3435.973877	NaN
0.000000	NaN
0.000000	NaN
0.000000	NaN
0.000000	NaN
0.000000	NaN
0.000000	NaN
0.000000	NaN
0.000000	NaN
0.000000	NaN
0.000000	NaN
0.000000	NaN
0.000000	NaN
0.000000	NaN
0.000000	NaN
0.000000	NaN
0.000000	NaN
0.000000	NaN
0.000000	NaN
0.000000	NaN
0.000000	NaN
0.000000	NaN
0.000000	NaN
0.000000	NaN
0.000000	NaN
0.000000	NaN
0.000000	NaN
0.000000	NaN
0.000000	NaN
0.000000	NaN
0.000000	NaN
0.000000	NaN
0.000000	NaN

Count Rate History (KHz)  CR CHA / CR CHB
0.000000	94.757080	100.889206
0.104858	100.955963	101.613998
0.209715	105.371475	110.149384
0.314573	89.502335	90.265274
0.419430	86.565018	91.457367
0.524288	95.024109	92.639923
0.629146	100.297928	112.590790
0.734003	133.743286	133.724213
0.838861	91.562271	95.386505
0.943718	103.511810	109.691620
1.048576	106.163025	102.739334
1.153434	99.544525	101.413727
1.258291	81.043243	88.777542
1.363149	88.682175	96.149445
1.468006	119.028091	119.161606
1.572864	108.489990	112.800598
1.677722	111.627579	118.732452
1.782579	104.837418	107.088089
1.887437	95.081329	94.814301
1.992294	100.326538	100.812912
2.097152	101.509094	106.439590
2.202010	83.990097	85.277557
2.306867	98.171234	102.005005
2.411725	99.868774	103.464127
2.516582	100.088120	99.468231
2.621440	107.584000	111.570358
2.726298	99.887848	102.329254
2.831155	106.391907	107.774734
2.936013	91.619492	95.100403
3.040870	103.054047	105.571747
3.145728	115.633011	121.650696
3.250586	100.584030	99.668503
3.355443	93.050003	96.225739
3.460301	94.442368	97.284317
3.565158	95.605850	96.759796
3.670016	104.341507	106.172562
3.774874	90.951920	94.690323
3.879731	110.692978	113.544464
3.984589	98.409653	105.762482
4.089446	104.436874	105.218887
4.194304	101.385117	104.112625
4.299162	107.917786	113.019943
4.404019	97.427368	98.009109
4.508877	103.836060	104.055405
4.613734	112.743378	115.861893
4.718592	88.853836	91.228485
4.823450	136.518478	144.004822
4.928307	139.274597	146.274567
5.033165	91.667175	92.763901
5.138022	101.747513	108.184814
5.242880	95.958710	100.088120
5.347738	88.386536	89.235306
5.452595	99.363327	104.246140
5.557453	80.957413	87.633133
5.662310	109.586716	105.876923
5.767168	100.450516	104.751587
5.872026	110.177994	111.303329
5.976883	112.762451	118.246078
6.081741	108.156204	116.748810
6.186598	106.735229	105.676651
6.291456	110.635757	108.909607
6.396314	92.573166	95.005035
6.501171	114.698410	117.359161
6.606029	111.341476	113.239288
6.710886	108.613968	113.840103
6.815744	102.005005	105.133057
6.920602	114.488602	122.432709
7.025459	84.600449	85.096359
7.130317	89.912415	97.951889
7.235174	111.637115	111.818314
7.340032	114.908218	121.536255
7.444890	96.101761	101.795197
7.549747	105.829239	110.063553
7.654605	101.966858	102.062225
7.759462	113.258362	117.483139
7.864320	96.530914	99.420547
7.969178	96.063614	96.359253
8.074035	83.217621	87.223053
8.178893	93.021393	91.953278
8.283750	94.509125	93.441010
8.388608	92.821121	96.254349
8.493466	96.073151	98.075867
8.598323	99.477768	104.932785
8.703181	76.866150	75.788498
8.808038	104.942322	107.097626
8.912896	100.650787	106.010437
9.017754	101.528168	106.172562
9.122611	95.043182	96.225739
9.227469	89.216232	89.349747
9.332326	88.939667	88.100433
9.437184	94.404221	102.329254
9.542042	122.232437	124.044418
9.646899	91.915131	99.172592
9.751757	116.024017	119.247437
9.856614	107.212067	108.032227
9.961472	115.175247	123.386383
10.066330	87.270737	89.473724
10.171187	120.325089	119.667053
10.276045	94.614029	95.062256
10.380902	95.472336	95.052719
10.485760	90.303421	91.905594
10.590618	110.797882	114.927292
10.695475	89.492798	94.184875
10.800333	85.411072	84.333420
10.905190	108.585358	112.953186
11.010048	97.446442	98.648071
11.114906	118.188858	121.545792
11.219763	87.728500	92.420578
11.324621	82.588196	79.584122
11.429478	99.554062	109.882355
11.534336	106.143951	103.750229
11.639194	90.656281	92.191696
11.744051	101.881027	104.942322
11.848909	108.566284	114.135742
11.953766	110.120773	116.176605
12.058624	87.633133	91.247559
12.163482	93.631744	91.609955
12.268339	96.216202	98.476410
12.373197	125.255585	131.387711
12.478054	108.928680	116.090775
12.582912	92.258453	88.291168
12.687770	113.306046	119.886398
12.792627	102.691650	104.837418
12.897485	112.285614	118.970871
13.002342	121.278763	125.865936
13.107200	79.202652	80.251694
13.212058	112.857819	112.609863
13.316915	98.276138	100.336075
13.421773	96.025467	100.746155
13.526630	98.838806	100.202560
13.631488	100.307465	107.507706
13.736346	119.085312	122.766495
13.841203	98.705292	96.321106
13.946061	98.047256	104.646683
14.050918	93.030930	92.439651
14.155776	96.712112	95.319748
14.260634	101.356506	103.464127
14.365491	92.563629	94.423294
14.470349	88.520050	89.445114
14.575206	104.551315	105.886459
14.680064	99.010468	100.755692
14.784922	113.134384	118.827820
14.889779	120.992661	123.357773
14.994637	107.069016	104.637146
15.099494	112.009048	116.825104
15.204352	84.447861	90.122223
15.309210	95.729828	97.122192
15.414067	98.743439	98.905563
15.518925	109.138489	109.987259
15.623782	97.818375	99.697113
15.728640	106.687546	110.607147
15.833498	101.795197	104.999542
15.938355	125.646591	130.472183
16.043213	102.682114	105.686188
16.148070	84.657669	88.281631
16.252928	107.498169	114.498138
16.357786	117.149353	116.777420
16.462643	104.389191	106.506348
16.567501	113.868713	118.551254
16.672358	116.252899	119.781494
16.777216	106.601715	107.955933
16.882074	91.838837	95.052719
16.986931	107.746124	114.831924
17.091789	91.772079	89.788437
17.196646	110.301971	112.981796
17.301504	100.078583	101.690292
17.406362	111.351013	116.643906
17.511219	88.062286	87.356567
17.616077	100.307465	104.484558
17.720934	100.202560	107.841492
17.825792	80.652237	82.263947
17.930650	117.931366	122.146606
18.035507	98.867416	98.600388
18.140365	85.973740	87.575912
18.245222	92.468262	100.259781
18.350080	93.765259	93.069077
18.454938	107.421875	107.526779
18.559795	107.879639	114.765167
18.664653	107.822418	110.712051
18.769510	115.823746	123.090744
18.874368	116.519928	121.192932
18.979226	97.703934	100.641251
19.084083	110.244751	117.874146
19.188941	104.799271	107.202530
19.293798	94.032288	96.549988
19.398656	92.601776	95.748901
19.503514	89.759827	91.800690
19.608371	106.611252	110.750198
19.713229	87.280273	85.868835
