1/9/2026	9:51 AM
Pseudo Cross Correlation
Scattering angle:	130.0
Duration (s):	20
Wavelength (nm):	632.8
Refractive index:	1.330
Viscosity (mPas):	0.825
Temperature (K):	301.6
Laser intensity (mW):	8.516756
Average Count rate  A (kHz):	74.9
Average Count rate  B (kHz):	74.2
Intercept:	0.8570
Cumulant 1st	122.52
Cumulant 2nd	114.38	30.81
Cumulant 3rd	115.58	24.07

Lag time (s)         g2-1
1.250000E-8	0.910514
2.500000E-8	0.870590
3.750000E-8	0.798002
5.000000E-8	0.864057
6.250000E-8	0.849540
7.500000E-8	0.855347
8.750000E-8	0.843007
1.000000E-7	0.830667
1.125000E-7	0.842281
1.250000E-7	0.823408
1.375000E-7	0.885108
1.500000E-7	0.836474
1.625000E-7	0.872768
1.750000E-7	0.819779
1.875000E-7	0.914143
2.000000E-7	0.837926
2.125000E-7	0.856799
2.250000E-7	0.858976
2.375000E-7	0.824134
2.500000E-7	0.804535
2.625000E-7	0.886560
2.750000E-7	0.879301
2.875000E-7	0.861154
3.000000E-7	0.842281
3.125000E-7	0.885108
3.250000E-7	0.847362
3.375000E-7	0.837200
3.500000E-7	0.917046
3.625000E-7	0.906884
3.750000E-7	0.871316
3.875000E-7	0.835022
4.000000E-7	0.861154
4.125000E-7	0.871316
4.250000E-7	0.806713
4.375000E-7	0.868413
4.500000E-7	0.892367
4.625000E-7	0.918498
4.750000E-7	0.890915
4.875000E-7	0.827037
5.000000E-7	0.874220
5.125000E-7	0.811068
5.250000E-7	0.857524
5.375000E-7	0.840103
5.500000E-7	0.861880
5.625000E-7	0.824860
5.750000E-7	0.858250
5.875000E-7	0.845910
6.000000E-7	0.898899
6.125000E-7	0.897448
6.250000E-7	0.898899
6.375000E-7	0.900351
6.500000E-7	0.848814
6.625000E-7	0.882204
6.750000E-7	0.921402
6.875000E-7	0.922853
7.000000E-7	0.895270
7.125000E-7	0.853895
7.250000E-7	0.837926
7.375000E-7	0.854621
7.500000E-7	0.821956
7.625000E-7	0.912691
7.750000E-7	0.768241
7.875000E-7	0.893092
8.000000E-7	0.894544
8.250000E-7	0.853169
8.500000E-7	0.835748
8.750000E-7	0.884745
9.000000E-7	0.862969
9.250000E-7	0.894544
9.500000E-7	0.863331
9.750000E-7	0.837926
1.000000E-6	0.854258
1.025000E-6	0.822682
1.050000E-6	0.852080
1.075000E-6	0.860065
1.100000E-6	0.855347
1.125000E-6	0.819779
1.150000E-6	0.856436
1.175000E-6	0.882567
1.200000E-6	0.830667
1.225000E-6	0.859339
1.250000E-6	0.877123
1.275000E-6	0.869864
1.300000E-6	0.904344
1.325000E-6	0.843007
1.350000E-6	0.848814
1.375000E-6	0.825223
1.400000E-6	0.836111
1.425000E-6	0.854984
1.450000E-6	0.881478
1.475000E-6	0.895270
1.500000E-6	0.847362
1.525000E-6	0.825586
1.550000E-6	0.837926
1.575000E-6	0.821230
1.600000E-6	0.822319
1.650000E-6	0.858432
1.700000E-6	0.844822
1.750000E-6	0.865691
1.800000E-6	0.853714
1.850000E-6	0.833752
1.900000E-6	0.843370
1.950000E-6	0.867868
2.000000E-6	0.805261
2.050000E-6	0.843188
2.100000E-6	0.839922
2.150000E-6	0.885652
2.200000E-6	0.864602
2.250000E-6	0.855165
2.300000E-6	0.859339
2.350000E-6	0.818145
2.400000E-6	0.832844
2.450000E-6	0.821956
2.500000E-6	0.862243
2.550000E-6	0.833026
2.600000E-6	0.839740
2.650000E-6	0.821412
2.700000E-6	0.846818
2.750000E-6	0.847906
2.800000E-6	0.871861
2.850000E-6	0.861517
2.900000E-6	0.873312
2.950000E-6	0.806894
3.000000E-6	0.847906
3.050000E-6	0.832482
3.100000E-6	0.865146
3.150000E-6	0.855891
3.200000E-6	0.840466
3.300000E-6	0.852806
3.400000E-6	0.844368
3.500000E-6	0.856254
3.600000E-6	0.849993
3.700000E-6	0.857252
3.800000E-6	0.813790
3.900000E-6	0.848451
4.000000E-6	0.860519
4.100000E-6	0.823499
4.200000E-6	0.822410
4.300000E-6	0.843461
4.400000E-6	0.828036
4.500000E-6	0.879210
4.600000E-6	0.830485
4.700000E-6	0.846545
4.800000E-6	0.840375
4.900000E-6	0.849358
5.000000E-6	0.854076
5.100000E-6	0.821321
5.200000E-6	0.830122
5.300000E-6	0.844640
5.400000E-6	0.836111
5.500000E-6	0.837835
5.600000E-6	0.850538
5.700000E-6	0.839922
5.800000E-6	0.836837
5.900000E-6	0.837109
6.000000E-6	0.871588
6.100000E-6	0.855710
6.200000E-6	0.826130
6.300000E-6	0.834115
6.400000E-6	0.844186
6.600000E-6	0.836066
6.800000E-6	0.846545
7.000000E-6	0.837835
7.200000E-6	0.851173
7.400000E-6	0.841691
7.600000E-6	0.835929
7.800000E-6	0.848814
8.000000E-6	0.843234
8.200000E-6	0.835567
8.400000E-6	0.833843
8.600000E-6	0.832799
8.800000E-6	0.845457
9.000000E-6	0.826493
9.200000E-6	0.844867
9.400000E-6	0.842417
9.600000E-6	0.842372
9.800000E-6	0.834432
1.000000E-5	0.828398
1.020000E-5	0.830621
1.040000E-5	0.836383
1.060000E-5	0.837154
1.080000E-5	0.831529
1.100000E-5	0.830122
1.120000E-5	0.835068
1.140000E-5	0.845094
1.160000E-5	0.830213
1.180000E-5	0.849540
1.200000E-5	0.834931
1.220000E-5	0.816195
1.240000E-5	0.825450
1.260000E-5	0.838062
1.280000E-5	0.836111
1.320000E-5	0.820232
1.360000E-5	0.823952
1.400000E-5	0.822569
1.440000E-5	0.821435
1.480000E-5	0.829782
1.520000E-5	0.812792
1.560000E-5	0.821979
1.600000E-5	0.807938
1.640000E-5	0.819007
1.680000E-5	0.819688
1.720000E-5	0.817556
1.760000E-5	0.805579
1.800000E-5	0.812792
1.840000E-5	0.813563
1.880000E-5	0.808596
1.920000E-5	0.813291
1.960000E-5	0.811408
2.000000E-5	0.813019
2.040000E-5	0.800475
2.080000E-5	0.810977
2.120000E-5	0.810977
2.160000E-5	0.807711
2.200000E-5	0.812792
2.240000E-5	0.793738
2.280000E-5	0.789677
2.320000E-5	0.805375
2.360000E-5	0.798297
2.400000E-5	0.796437
2.440000E-5	0.799046
2.480000E-5	0.804535
2.520000E-5	0.799431
2.560000E-5	0.802743
2.640000E-5	0.788407
2.720000E-5	0.791390
2.800000E-5	0.789122
2.880000E-5	0.795893
2.960000E-5	0.789462
3.040000E-5	0.791050
3.120000E-5	0.787160
3.200000E-5	0.785061
3.280000E-5	0.781647
3.360000E-5	0.781886
3.440000E-5	0.783303
3.520000E-5	0.779095
3.600000E-5	0.774706
3.680000E-5	0.774808
3.760000E-5	0.778993
3.840000E-5	0.770124
3.920000E-5	0.763682
4.000000E-5	0.767062
4.080000E-5	0.764850
4.160000E-5	0.763387
4.240000E-5	0.762820
4.320000E-5	0.765394
4.400000E-5	0.761788
4.480000E-5	0.754529
4.560000E-5	0.759349
4.640000E-5	0.749357
4.720000E-5	0.754211
4.800000E-5	0.752986
4.880000E-5	0.753486
4.960000E-5	0.751228
5.040000E-5	0.745421
5.120000E-5	0.746374
5.280000E-5	0.741264
5.440000E-5	0.736296
5.600000E-5	0.741456
5.760000E-5	0.733523
5.920000E-5	0.731402
6.080000E-5	0.726211
6.240000E-5	0.723982
6.400000E-5	0.727430
6.560000E-5	0.717920
6.720000E-5	0.713275
6.880000E-5	0.713417
7.040000E-5	0.705938
7.200000E-5	0.705031
7.360000E-5	0.703664
7.520000E-5	0.703398
7.680000E-5	0.698980
7.840000E-5	0.694076
8.000000E-5	0.693769
8.160000E-5	0.695651
8.320000E-5	0.686288
8.480000E-5	0.684683
8.640000E-5	0.684400
8.800000E-5	0.675593
8.960000E-5	0.677759
9.120000E-5	0.674561
9.280000E-5	0.670558
9.440000E-5	0.668522
9.600000E-5	0.663146
9.760000E-5	0.661853
9.920000E-5	0.662250
0.000101	0.659958
0.000102	0.655064
0.000106	0.651141
0.000109	0.643806
0.000112	0.637057
0.000115	0.637820
0.000118	0.625676
0.000122	0.620712
0.000125	0.618521
0.000128	0.613255
0.000131	0.605156
0.000134	0.601399
0.000138	0.596946
0.000141	0.590975
0.000144	0.583565
0.000147	0.579836
0.000150	0.576385
0.000154	0.573177
0.000157	0.569201
0.000160	0.567440
0.000163	0.554048
0.000166	0.558389
0.000170	0.546438
0.000173	0.541721
0.000176	0.537212
0.000179	0.534934
0.000182	0.527153
0.000186	0.524447
0.000189	0.520753
0.000192	0.516192
0.000195	0.510189
0.000198	0.509783
0.000202	0.503114
0.000205	0.499965
0.000211	0.492489
0.000218	0.482078
0.000224	0.476906
0.000230	0.469858
0.000237	0.462174
0.000243	0.454592
0.000250	0.447315
0.000256	0.438308
0.000262	0.432801
0.000269	0.422175
0.000275	0.418841
0.000282	0.411499
0.000288	0.405423
0.000294	0.398976
0.000301	0.391633
0.000307	0.385796
0.000314	0.378953
0.000320	0.374907
0.000326	0.369483
0.000333	0.359321
0.000339	0.355285
0.000346	0.347233
0.000352	0.345047
0.000358	0.338634
0.000365	0.332203
0.000371	0.327721
0.000378	0.324025
0.000384	0.318888
0.000390	0.314383
0.000397	0.306948
0.000403	0.305321
0.000410	0.299463
0.000422	0.290713
0.000435	0.281823
0.000448	0.271736
0.000461	0.262635
0.000474	0.255815
0.000486	0.249246
0.000499	0.240996
0.000512	0.233076
0.000525	0.225051
0.000538	0.218383
0.000550	0.211688
0.000563	0.206224
0.000576	0.198900
0.000589	0.192876
0.000602	0.186022
0.000614	0.181131
0.000627	0.175347
0.000640	0.171238
0.000653	0.164238
0.000666	0.160374
0.000678	0.155024
0.000691	0.151155
0.000704	0.147224
0.000717	0.141666
0.000730	0.139059
0.000742	0.133894
0.000755	0.129718
0.000768	0.125145
0.000781	0.121275
0.000794	0.118152
0.000806	0.116662
0.000819	0.112752
0.000845	0.107292
0.000870	0.103024
0.000896	0.097278
0.000922	0.091039
0.000947	0.086407
0.000973	0.082152
0.000998	0.078710
0.001024	0.074777
0.001050	0.071962
0.001075	0.067433
0.001101	0.064171
0.001126	0.060163
0.001152	0.057406
0.001178	0.054795
0.001203	0.050862
0.001229	0.049083
0.001254	0.046517
0.001280	0.044102
0.001306	0.042351
0.001331	0.039863
0.001357	0.036716
0.001382	0.037127
0.001408	0.033952
0.001434	0.033216
0.001459	0.032021
0.001485	0.031211
0.001510	0.028567
0.001536	0.028348
0.001562	0.027956
0.001587	0.026563
0.001613	0.024435
0.001638	0.024501
0.001690	0.021325
0.001741	0.019359
0.001792	0.018678
0.001843	0.017725
0.001894	0.017233
0.001946	0.014906
0.001997	0.014009
0.002048	0.014085
0.002099	0.014470
0.002150	0.014025
0.002202	0.013804
0.002253	0.013034
0.002304	0.013226
0.002355	0.013527
0.002406	0.014002
0.002458	0.012821
0.002509	0.013531
0.002560	0.014382
0.002611	0.014492
0.002662	0.014891
0.002714	0.014230
0.002765	0.012704
0.002816	0.011885
0.002867	0.012190
0.002918	0.012171
0.002970	0.011808
0.003021	0.012077
0.003072	0.010995
0.003123	0.011238
0.003174	0.010914
0.003226	0.009316
0.003277	0.006930
0.003379	0.004248
0.003482	0.004659
0.003584	0.004350
0.003686	0.005875
0.003789	0.005066
0.003891	0.004574
0.003994	0.003766
0.004096	0.002976
0.004198	0.002448
0.004301	0.001519
0.004403	0.001778
0.004506	0.001499
0.004608	0.000392
0.004710	0.001510
0.004813	0.003581
0.004915	0.005453
0.005018	0.005465
0.005120	0.006040
0.005222	0.006219
0.005325	0.006460
0.005427	0.007250
0.005530	0.007361
0.005632	0.007628
0.005734	0.008379
0.005837	0.009110
0.005939	0.008500
0.006042	0.006879
0.006144	0.005760
0.006246	0.003258
0.006349	0.002448
0.006451	0.001344
0.006554	0.000364
0.006758	0.000862
0.006963	0.002930
0.007168	0.003799
0.007373	0.002645
0.007578	0.000472
0.007782	0.001321
0.007987	0.000675
0.008192	0.001811
0.008397	0.002231
0.008602	0.002394
0.008806	0.003197
0.009011	0.001585
0.009216	-0.000329
0.009421	-0.002167
0.009626	-0.003644
0.009830	-0.003524
0.010035	-0.004212
0.010240	-0.005720
0.010445	-0.007138
0.010650	-0.006989
0.010854	-0.005933
0.011059	-0.002150
0.011264	-0.002218
0.011469	-0.003150
0.011674	-0.001910
0.011878	-0.001830
0.012083	-0.004608
0.012288	-0.003356
0.012493	-0.001455
0.012698	0.000469
0.012902	0.001246
0.013107	0.001220
0.013517	0.002440
0.013926	0.003108
0.014336	0.004214
0.014746	0.006275
0.015155	0.011415
0.015565	0.015099
0.015974	0.010750
0.016384	0.004660
0.016794	0.001736
0.017203	0.000434
0.017613	0.002412
0.018022	0.004415
0.018432	0.004778
0.018842	0.002586
0.019251	0.003399
0.019661	0.004232
0.020070	0.000128
0.020480	0.000489
0.020890	0.003550
0.021299	0.002371
0.021709	8.181093E-5
0.022118	0.001528
0.022528	0.001022
0.022938	-0.002434
0.023347	-0.007168
0.023757	-0.008589
0.024166	-0.006511
0.024576	-0.007039
0.024986	-0.005566
0.025395	-0.006386
0.025805	-0.003346
0.026214	0.000959
0.027034	0.007103
0.027853	0.001139
0.028672	0.004315
0.029491	0.001215
0.030310	0.003380
0.031130	0.003667
0.031949	0.003855
0.032768	-0.000901
0.033587	-0.000284
0.034406	-0.003702
0.035226	0.002530
0.036045	0.007450
0.036864	0.010089
0.037683	0.007322
0.038502	0.005625
0.039322	-9.726611E-5
0.040141	0.000677
0.040960	0.000752
0.041779	0.000520
0.042598	0.005214
0.043418	0.001484
0.044237	-0.001266
0.045056	-0.000107
0.045875	0.001695
0.046694	0.002357
0.047514	-0.002100
0.048333	-0.001813
0.049152	0.003083
0.049971	0.002570
0.050790	0.003666
0.051610	0.004291
0.052429	0.005609
0.054067	0.006305
0.055706	0.003491
0.057344	0.002868
0.058982	0.007743
0.060621	0.005385
0.062259	0.004701
0.063898	0.000106
0.065536	0.000735
0.067174	-0.000521
0.068813	-0.003376
0.070451	0.002936
0.072090	-0.000589
0.073728	0.001294
0.075366	0.004410
0.077005	0.004789
0.078643	0.003714
0.080282	0.009092
0.081920	0.007218
0.083558	0.002981
0.085197	-0.000443
0.086835	0.003447
0.088474	0.001122
0.090112	-0.000501
0.091750	0.001473
0.093389	0.003186
0.095027	0.003508
0.096666	0.003841
0.098304	0.001722
0.099942	0.000423
0.101581	0.002173
0.103219	-0.002321
0.104858	0.001536
0.108134	-0.001612
0.111411	0.001180
0.114688	-0.002927
0.117965	-0.004209
0.121242	0.003176
0.124518	-0.003108
0.127795	-0.001503
0.131072	0.004207
0.134349	-0.000468
0.137626	-0.003671
0.140902	-0.000933
0.144179	0.001052
0.147456	0.004631
0.150733	0.000919
0.154010	-0.000502
0.157286	-0.000773
0.160563	-0.002446
0.163840	0.004564
0.167117	0.003481
0.170394	-0.001857
0.173670	-0.000295
0.176947	0.001648
0.180224	-0.004578
0.183501	-0.003265
0.186778	0.002309
0.190054	0.001610
0.193331	0.003574
0.196608	-0.002552
0.199885	0.002888
0.203162	-0.001633
0.206438	0.003056
0.209715	0.000713
0.216269	0.002410
0.222822	0.001320
0.229376	-0.000692
0.235930	-0.000703
0.242483	-0.002361
0.249037	0.000505
0.255590	0.002016
0.262144	0.000326
0.268698	0.002540
0.275251	0.001389
0.281805	0.001947
0.288358	0.001689
0.294912	0.000961
0.301466	0.001823
0.308019	-0.001064
0.314573	0.000660
0.321126	-0.001814
0.327680	-0.002382
0.334234	-0.002541
0.340787	0.001723
0.347341	-0.002562
0.353894	0.001721
0.360448	-0.001422
0.367002	0.004850
0.373555	-0.001137
0.380109	0.000526
0.386662	0.000453
0.393216	-0.001338
0.399770	0.001017
0.406323	-0.003152
0.412877	-0.001941
0.419430	-0.004487
0.432538	0.000474
0.445645	0.000756
0.458752	0.000333
0.471859	-0.002266
0.484966	0.000229
0.498074	0.000351
0.511181	0.002342
0.524288	-0.002098
0.537395	-0.000718
0.550502	0.000517
0.563610	0.002881
0.576717	-0.000197
0.589824	-0.000615
0.602931	-0.001409
0.616038	0.000452
0.629146	-0.000526
0.642253	0.000481
0.655360	-0.001713
0.668467	-5.188368E-5
0.681574	-0.002435
0.694682	-0.002287
0.707789	-0.001211
0.720896	0.000282
0.734003	-0.000713
0.747110	-0.000309
0.760218	0.001518
0.773325	0.000989
0.786432	-0.001313
0.799539	-0.001816
0.812646	-0.001578
0.825754	-0.002462
0.838861	-0.001415
0.865075	-0.000130
0.891290	0.001329
0.917504	-0.001246
0.943718	-0.001248
0.969933	-0.001672
0.996147	-0.002109
1.022362	-0.001010
1.048576	-0.000397
1.074790	-0.001507
1.101005	-0.000930
1.127219	0.000262
1.153434	0.000640
1.179648	-0.000828
1.205862	0.000463
1.232077	9.778161E-5
1.258291	-0.001073
1.284506	-8.624650E-5
1.310720	-0.001608
1.336934	0.000307
1.363149	-0.002498
1.389363	-0.001925
1.415578	0.001485
1.441792	0.000134
1.468006	-0.000482
1.494221	0.001095
1.520435	0.000406
1.546650	0.000222
1.572864	-0.001418
1.599078	0.001090
1.625293	0.002092
1.651507	0.000233
1.677722	0.001627
1.730150	0.001182
1.782579	0.001134
1.835008	-0.000102
1.887437	-0.001123
1.939866	-0.000596
1.992294	0.000286
2.044723	-0.000465
2.097152	-0.001166
2.149581	-0.001107
2.202010	-0.000373
2.254438	-0.000204
2.306867	-0.001173
2.359296	-0.000342
2.411725	-0.000285
2.464154	-0.000931
2.516582	-0.000984
2.569011	-0.001452
2.621440	0.001820
2.673869	0.000732
2.726298	0.000943
2.778726	-4.354705E-5
2.831155	0.000570
2.883584	0.000881
2.936013	0.002136
2.988442	0.000905
3.040870	0.000440
3.093299	-1.898542E-5
3.145728	-0.000179
3.198157	0.002150
3.250586	0.001019
3.303015	0.001565
3.355443	-0.000138
3.460301	2.730106E-6
3.565158	0.000570
3.670016	-0.001426
3.774873	-0.000863
3.879731	-8.654994E-5
3.984589	-0.001200
4.089447	-0.000192
4.194304	-0.000599
4.299161	-0.000150
4.404019	0.000649
4.508877	0.000223
4.613734	1.564086E-5
4.718592	0.000254
4.823450	0.000496
4.928307	0.000616
5.033165	0.000556
5.138022	-0.002793
5.242880	-0.000986
5.347738	5.978728E-5
5.452595	-0.001562
5.557453	-0.001103
5.662311	-0.000465
5.767168	-0.001269
5.872025	0.001756
5.976883	0.000967
6.081741	0.000415
6.186598	0.001625
6.291456	0.001156
6.396314	-0.000134
6.501171	0.001449
6.606029	-0.000379
6.710886	-0.000904
6.920601	-0.000575
7.130317	-0.000359
7.340032	-0.000149
7.549747	0.000371
7.759462	0.001538
7.969178	0.000646
8.178893	-6.283587E-5
8.388608	-0.000881
8.598323	-0.000576
8.808039	0.000127
9.017754	-0.001427
9.227468	0.000465
9.437184	0.000645
9.646899	-3.668577E-5
9.856614	-0.000158
10.066330	-0.000229
10.276045	0.000925
10.485760	-0.000538
10.695476	0.001018
10.905190	0.001589
11.114905	0.000254
11.324621	-0.001476
11.534336	-0.000579
11.744051	-0.001515
11.953767	-0.000990
12.163482	-0.000669
12.373197	-0.000301
12.582912	0.001037
12.792627	-0.001226
13.002342	0.001353
13.212058	0.000296
13.421773	-0.000970
13.841203	-0.000313
14.260633	0.000230
14.680064	-0.000632
15.099494	0.000245
15.518925	-4.478166E-5
15.938355	0.000450
16.357786	-0.000278
16.777216	-0.000108
17.196646	-0.000157
17.616077	0.000255
18.035507	2.461307E-5
18.454937	-2.927979E-5
18.874369	0.000000
19.293798	NaN
19.713228	NaN
20.132660	NaN
20.552090	NaN
20.971519	NaN
21.390951	NaN
21.810381	NaN
22.229811	NaN
22.649242	NaN
23.068672	NaN
23.488102	NaN
23.907534	NaN
24.326963	NaN
24.746393	NaN
25.165825	NaN
25.585255	NaN
26.004684	NaN
26.424116	NaN
26.843546	NaN
27.682405	NaN
28.521267	NaN
29.360128	NaN
30.198988	NaN
31.037849	NaN
31.876711	NaN
32.715572	NaN
33.554432	NaN
34.393291	NaN
35.232155	NaN
36.071014	NaN
36.909874	NaN
37.748737	NaN
38.587597	NaN
39.426456	NaN
40.265320	NaN
41.104179	NaN
41.943039	NaN
42.781902	NaN
43.620762	NaN
44.459621	NaN
45.298485	NaN
46.137344	NaN
46.976204	NaN
47.815067	NaN
48.653927	NaN
49.492786	NaN
50.331650	NaN
51.170509	NaN
52.009369	NaN
52.848232	NaN
53.687092	NaN
55.364811	NaN
57.042534	NaN
58.720257	NaN
60.397976	NaN
62.075699	NaN
63.753422	NaN
65.431145	NaN
67.108864	NaN
68.786583	NaN
70.464310	NaN
72.142029	NaN
73.819748	NaN
75.497475	NaN
77.175194	NaN
78.852913	NaN
80.530640	NaN
82.208359	NaN
83.886078	NaN
85.563805	NaN
87.241524	NaN
88.919243	NaN
90.596970	NaN
92.274689	NaN
93.952408	NaN
95.630135	NaN
97.307854	NaN
98.985573	NaN
100.663300	NaN
102.341019	NaN
104.018738	NaN
105.696465	NaN
107.374184	NaN
110.729622	NaN
114.085068	NaN
117.440514	NaN
120.795952	NaN
124.151398	NaN
127.506844	NaN
130.862289	NaN
134.217728	NaN
137.573166	NaN
140.928619	NaN
144.284058	NaN
147.639496	NaN
150.994949	NaN
154.350388	NaN
157.705826	NaN
161.061279	NaN
164.416718	NaN
167.772156	NaN
171.127609	NaN
174.483047	NaN
177.838486	NaN
181.193939	NaN
184.549377	NaN
187.904816	NaN
191.260269	NaN
194.615707	NaN
197.971146	NaN
201.326599	NaN
204.682037	NaN
208.037476	NaN
211.392929	NaN
214.748367	NaN
221.459244	NaN
228.170135	NaN
234.881027	NaN
241.591904	NaN
248.302795	NaN
255.013687	NaN
261.724579	NaN
268.435455	NaN
275.146332	NaN
281.857239	NaN
288.568115	NaN
295.278992	NaN
301.989899	NaN
308.700775	NaN
315.411652	NaN
322.122559	NaN
328.833435	NaN
335.544312	NaN
342.255219	NaN
348.966095	NaN
355.676971	NaN
362.387878	NaN
369.098755	NaN
375.809631	NaN
382.520538	NaN
389.231415	NaN
395.942291	NaN
402.653198	NaN
409.364075	NaN
416.074951	NaN
422.785858	NaN
429.496735	NaN
442.918488	NaN
456.340271	NaN
469.762054	NaN
483.183807	NaN
496.605591	NaN
510.027374	NaN
523.449158	NaN
536.870911	NaN
550.292664	NaN
563.714478	NaN
577.136230	NaN
590.557983	NaN
603.979797	NaN
617.401550	NaN
630.823303	NaN
644.245117	NaN
657.666870	NaN
671.088623	NaN
684.510437	NaN
697.932190	NaN
711.353943	NaN
724.775757	NaN
738.197510	NaN
751.619263	NaN
765.041077	NaN
778.462830	NaN
791.884583	NaN
805.306396	NaN
818.728149	NaN
832.149902	NaN
845.571716	NaN
858.993469	NaN
885.836975	NaN
912.680542	NaN
939.524109	NaN
966.367615	NaN
993.211182	NaN
1020.054749	NaN
1046.898315	NaN
1073.741821	NaN
1100.585327	NaN
1127.428955	NaN
1154.272461	NaN
1181.115967	NaN
1207.959595	NaN
1234.803101	NaN
1261.646606	NaN
1288.490234	NaN
1315.333740	NaN
1342.177246	NaN
1369.020874	NaN
1395.864380	NaN
1422.707886	NaN
1449.551514	NaN
1476.395020	NaN
1503.238525	NaN
1530.082153	NaN
1556.925659	NaN
1583.769165	NaN
1610.612793	NaN
1637.456299	NaN
1664.299805	NaN
1691.143433	NaN
1717.986938	NaN
1771.673950	NaN
1825.361084	NaN
1879.048218	NaN
1932.735229	NaN
1986.422363	NaN
2040.109497	NaN
2093.796631	NaN
2147.483643	NaN
2201.170654	NaN
2254.857910	NaN
2308.544922	NaN
2362.231934	NaN
2415.919189	NaN
2469.606201	NaN
2523.293213	NaN
2576.980469	NaN
2630.667480	NaN
2684.354492	NaN
2738.041748	NaN
2791.728760	NaN
2845.415771	NaN
2899.103027	NaN
2952.790039	NaN
3006.477051	NaN
3060.164307	NaN
3113.851318	NaN
3167.538330	NaN
3221.225586	NaN
3274.912598	NaN
3328.599609	NaN
3382.286865	NaN
3435.973877	NaN
0.000000	NaN
0.000000	NaN
0.000000	NaN
0.000000	NaN
0.000000	NaN
0.000000	NaN
0.000000	NaN
0.000000	NaN
0.000000	NaN
0.000000	NaN
0.000000	NaN
0.000000	NaN
0.000000	NaN
0.000000	NaN
0.000000	NaN
0.000000	NaN
0.000000	NaN
0.000000	NaN
0.000000	NaN
0.000000	NaN
0.000000	NaN
0.000000	NaN
0.000000	NaN
0.000000	NaN
0.000000	NaN
0.000000	NaN
0.000000	NaN
0.000000	NaN
0.000000	NaN
0.000000	NaN
0.000000	NaN
0.000000	NaN

Count Rate History (KHz)  CR CHA / CR CHB
0.000000	72.364807	68.674088
0.104858	77.342987	74.472427
0.209715	73.280334	76.770782
0.314573	73.480606	72.450638
0.419430	82.960129	78.668594
0.524288	70.858002	71.573257
0.629146	74.558258	75.016022
0.734003	71.315765	73.671341
0.838861	71.077347	73.680878
0.943718	100.851059	103.950500
1.048576	63.753128	59.928894
1.153434	62.494278	61.063766
1.258291	78.077316	80.823898
1.363149	81.596375	81.892014
1.468006	73.604584	74.958801
1.572864	80.709457	77.266693
1.677722	71.306229	70.409775
1.782579	76.074600	73.261261
1.887437	74.253082	74.033737
1.992294	76.580048	75.407028
2.097152	72.736740	72.650909
2.202010	69.017410	70.924759
2.306867	75.302124	73.785782
2.411725	73.032379	71.134567
2.516582	63.161850	63.524246
2.621440	64.735413	62.160492
2.726298	66.776276	68.321228
2.831155	72.021484	69.694519
2.936013	69.990158	68.521500
3.040870	78.783035	81.329346
3.145728	73.356628	72.727203
3.250586	80.537796	81.510544
3.355443	68.407059	67.415237
3.460301	73.776245	73.356628
3.565158	82.893372	81.033707
3.670016	78.649521	78.258514
3.774874	72.517395	72.612762
3.879731	79.183578	79.736710
3.984589	71.706772	70.199966
4.089446	77.238083	74.701309
4.194304	75.101852	73.308945
4.299162	75.845718	76.503754
4.404019	68.378448	67.262650
4.508877	77.285767	77.190399
4.613734	73.938370	76.045990
4.718592	82.511902	78.573227
4.823450	83.494186	82.874298
4.928307	73.366165	73.766708
5.033165	85.248947	82.464218
5.138022	71.697235	70.943832
5.242880	71.220398	69.446564
5.347738	72.832108	68.864822
5.452595	62.322617	60.338974
5.557453	60.586929	57.334900
5.662310	70.400238	68.311691
5.767168	75.874329	75.817108
5.872026	70.552826	70.171356
5.976883	76.332092	77.018738
6.081741	82.187653	81.453323
6.186598	75.006485	71.678162
6.291456	89.921951	92.153549
6.396314	76.541901	77.314377
6.501171	76.665878	73.356628
6.606029	72.174072	71.144104
6.710886	73.060989	73.976517
6.815744	82.674026	84.848404
6.920602	74.996948	76.551437
7.025459	76.112747	74.625015
7.130317	68.950653	69.980621
7.235174	69.084167	69.837570
7.340032	71.020126	65.584183
7.444890	65.526962	63.390732
7.549747	75.435638	75.263977
7.654605	68.073273	69.408417
7.759462	96.225739	101.814270
7.864320	86.774826	80.232620
7.969178	67.224503	69.427490
8.074035	92.401505	88.586807
8.178893	74.720383	71.163177
8.283750	73.366165	74.739456
8.388608	68.340302	64.678192
8.493466	66.699982	69.046021
8.598323	80.480576	80.041885
8.703181	73.595047	70.610046
8.808038	67.043304	63.495636
8.912896	81.644058	83.179474
9.017754	77.390671	74.424744
9.122611	70.648193	69.694519
9.227469	66.747665	63.657761
9.332326	79.584122	79.984665
9.437184	74.644089	71.306229
9.542042	81.233978	81.214905
9.646899	72.345734	74.281693
9.751757	77.266693	73.785782
9.856614	62.294006	61.063766
9.961472	72.917938	72.021484
10.066330	70.018768	69.160461
10.171187	70.190430	70.838928
10.276045	72.937012	72.393417
10.380902	73.776245	75.645447
10.485760	71.325302	68.511963
10.590618	77.037811	76.808929
10.695475	84.114075	87.413788
10.800333	72.669983	71.382523
10.905190	81.262589	81.434250
11.010048	72.031021	72.517395
11.114906	74.625015	74.501038
11.219763	74.014664	71.725845
11.324621	83.589554	84.075928
11.429478	64.468384	59.814453
11.534336	72.736740	74.453354
11.639194	86.135864	85.840225
11.744051	71.277618	69.465637
11.848909	68.283081	67.110062
11.953766	71.878433	70.133209
12.058624	71.411133	71.067810
12.163482	79.412460	76.999664
12.268339	72.402954	75.244904
12.373197	81.396103	81.272125
12.478054	78.458786	79.107285
12.582912	79.135895	79.631805
12.687770	64.954758	62.999725
12.792627	82.740784	83.971024
12.897485	73.585510	73.032379
13.002342	74.701309	72.097778
13.107200	69.932938	69.026947
13.212058	70.352554	67.014694
13.316915	67.529678	66.671371
13.421773	73.156357	72.631836
13.526630	69.780350	65.774918
13.631488	67.701340	64.744949
13.736346	69.246292	67.996979
13.841203	75.674057	74.653625
13.946061	104.084015	105.676651
14.050918	86.097717	90.274811
14.155776	79.736710	77.829361
14.260634	83.389282	81.605911
14.365491	74.548721	73.661804
14.470349	80.499649	79.660416
14.575206	100.812912	106.058121
14.680064	84.180832	82.349777
14.784922	78.248978	76.436996
14.889779	82.683563	82.473755
14.994637	69.684982	68.092346
15.099494	75.016022	75.254440
15.204352	69.999695	66.184998
15.309210	75.750351	73.995590
15.414067	77.114105	75.473785
15.518925	74.396133	74.119568
15.623782	75.473785	76.532364
15.728640	75.893402	75.473785
15.833498	74.844360	70.962906
15.938355	73.852539	73.785782
16.043213	66.547394	65.736771
16.148070	64.525604	64.716339
16.252928	79.164505	77.648163
16.357786	66.509247	64.907074
16.462643	76.580048	75.969696
16.567501	91.638565	94.223022
16.672358	70.877075	69.723129
16.777216	67.052841	65.135956
16.882074	72.822571	74.586868
16.986931	77.590942	80.766678
17.091789	70.266724	68.693161
17.196646	70.018768	70.123672
17.301504	81.529617	81.701279
17.406362	76.436996	76.799393
17.511219	81.043243	80.747604
17.616077	71.582794	71.554184
17.720934	71.048737	69.408417
17.825792	81.834793	81.338882
17.930650	70.552826	67.300797
18.035507	75.054169	74.110031
18.140365	81.367493	82.111359
18.245222	73.995590	72.460175
18.350080	68.159103	67.462921
18.454938	68.416595	68.798065
18.559795	68.559647	67.787170
18.664653	78.573227	78.678131
18.769510	80.327988	77.104568
18.874368	80.575943	78.926086
18.979226	80.680847	80.509186
19.084083	70.209503	67.319870
19.188941	74.758530	74.167252
19.293798	68.683624	68.874359
19.398656	75.826645	76.456070
19.503514	79.908371	81.224442
19.608371	65.765381	63.028336
19.713229	70.791245	71.001053
