1/9/2026	9:33 AM
Pseudo Cross Correlation
Scattering angle:	130.0
Duration (s):	20
Wavelength (nm):	632.8
Refractive index:	1.330
Viscosity (mPas):	0.826
Temperature (K):	301.5
Laser intensity (mW):	8.520134
Average Count rate  A (kHz):	57.8
Average Count rate  B (kHz):	54.9
Intercept:	0.8269
Cumulant 1st	118.68
Cumulant 2nd	118.24	7.92
Cumulant 3rd	124.82	53.79

Lag time (s)         g2-1
1.250000E-8	0.789944
2.500000E-8	0.743148
3.750000E-8	0.789944
5.000000E-8	0.817242
6.250000E-8	0.834140
7.500000E-8	0.784745
8.750000E-8	0.765246
1.000000E-7	0.761347
1.125000E-7	0.801643
1.250000E-7	0.865338
1.375000E-7	0.856239
1.500000E-7	0.849739
1.625000E-7	0.922533
1.750000E-7	0.849739
1.875000E-7	0.828941
2.000000E-7	0.823741
2.125000E-7	0.844540
2.250000E-7	0.739249
2.375000E-7	0.782145
2.500000E-7	0.861438
2.625000E-7	0.776945
2.750000E-7	0.844540
2.875000E-7	0.913434
3.000000E-7	0.828941
3.125000E-7	0.848439
3.250000E-7	0.831541
3.375000E-7	0.874437
3.500000E-7	0.791244
3.625000E-7	0.865338
3.750000E-7	0.869237
3.875000E-7	0.744448
4.000000E-7	0.757447
4.125000E-7	0.813342
4.250000E-7	0.849739
4.375000E-7	0.882236
4.500000E-7	0.832841
4.625000E-7	0.825041
4.750000E-7	0.797744
4.875000E-7	0.771746
5.000000E-7	0.927732
5.125000E-7	0.789944
5.250000E-7	0.826341
5.375000E-7	0.874437
5.500000E-7	0.786045
5.625000E-7	0.845839
5.750000E-7	0.919933
5.875000E-7	0.771746
6.000000E-7	0.909534
6.125000E-7	0.771746
6.250000E-7	0.880936
6.375000E-7	0.745748
6.500000E-7	0.812042
6.625000E-7	0.784745
6.750000E-7	0.808143
6.875000E-7	0.787345
7.000000E-7	0.778245
7.125000E-7	0.788644
7.250000E-7	0.783445
7.375000E-7	0.827641
7.500000E-7	0.874437
7.625000E-7	0.812042
7.750000E-7	0.886136
7.875000E-7	0.831541
8.000000E-7	0.880936
8.250000E-7	0.837390
8.500000E-7	0.817242
8.750000E-7	0.785395
9.000000E-7	0.786045
9.250000E-7	0.777595
9.500000E-7	0.834790
9.750000E-7	0.797094
1.000000E-6	0.789294
1.025000E-6	0.758747
1.050000E-6	0.819192
1.075000E-6	0.804243
1.100000E-6	0.825691
1.125000E-6	0.853639
1.150000E-6	0.782795
1.175000E-6	0.878987
1.200000E-6	0.851039
1.225000E-6	0.767196
1.250000E-6	0.838040
1.275000E-6	0.830241
1.300000E-6	0.832841
1.325000E-6	0.797094
1.350000E-6	0.795144
1.375000E-6	0.834790
1.400000E-6	0.836090
1.425000E-6	0.851039
1.450000E-6	0.817242
1.475000E-6	0.860788
1.500000E-6	0.929032
1.525000E-6	0.814642
1.550000E-6	0.773046
1.575000E-6	0.845189
1.600000E-6	0.847789
1.650000E-6	0.795144
1.700000E-6	0.837065
1.750000E-6	0.812367
1.800000E-6	0.812367
1.850000E-6	0.795794
1.900000E-6	0.843890
1.950000E-6	0.815617
2.000000E-6	0.823416
2.050000E-6	0.817567
2.100000E-6	0.837390
2.150000E-6	0.820492
2.200000E-6	0.842590
2.250000E-6	0.834140
2.300000E-6	0.810742
2.350000E-6	0.844540
2.400000E-6	0.829916
2.450000E-6	0.801643
2.500000E-6	0.784420
2.550000E-6	0.840640
2.600000E-6	0.834465
2.650000E-6	0.785070
2.700000E-6	0.848764
2.750000E-6	0.835440
2.800000E-6	0.826991
2.850000E-6	0.826341
2.900000E-6	0.851039
2.950000E-6	0.823091
3.000000E-6	0.832191
3.050000E-6	0.837065
3.100000E-6	0.813342
3.150000E-6	0.820167
3.200000E-6	0.823416
3.300000E-6	0.817079
3.400000E-6	0.808955
3.500000E-6	0.831378
3.600000E-6	0.842590
3.700000E-6	0.812205
3.800000E-6	0.812855
3.900000E-6	0.826829
4.000000E-6	0.822116
4.100000E-6	0.808955
4.200000E-6	0.813505
4.300000E-6	0.812855
4.400000E-6	0.825691
4.500000E-6	0.822929
4.600000E-6	0.817079
4.700000E-6	0.811067
4.800000E-6	0.813830
4.900000E-6	0.807493
5.000000E-6	0.839990
5.100000E-6	0.812042
5.200000E-6	0.800181
5.300000E-6	0.813342
5.400000E-6	0.806843
5.500000E-6	0.808630
5.600000E-6	0.795794
5.700000E-6	0.834628
5.800000E-6	0.799043
5.900000E-6	0.828941
6.000000E-6	0.820979
6.100000E-6	0.797094
6.200000E-6	0.793032
6.300000E-6	0.822116
6.400000E-6	0.813342
6.600000E-6	0.810580
6.800000E-6	0.782632
7.000000E-6	0.813505
7.200000E-6	0.807736
7.400000E-6	0.822198
7.600000E-6	0.764190
7.800000E-6	0.807005
8.000000E-6	0.815292
8.200000E-6	0.813017
8.400000E-6	0.793844
8.600000E-6	0.773858
8.800000E-6	0.812042
9.000000E-6	0.804649
9.200000E-6	0.810905
9.400000E-6	0.811230
9.600000E-6	0.812530
9.800000E-6	0.810255
1.000000E-5	0.804081
1.020000E-5	0.813424
1.040000E-5	0.803999
1.060000E-5	0.800993
1.080000E-5	0.788319
1.100000E-5	0.808711
1.120000E-5	0.779139
1.140000E-5	0.815211
1.160000E-5	0.779951
1.180000E-5	0.788726
1.200000E-5	0.801156
1.220000E-5	0.823985
1.240000E-5	0.812449
1.260000E-5	0.804162
1.280000E-5	0.804568
1.320000E-5	0.807696
1.360000E-5	0.786776
1.400000E-5	0.796525
1.440000E-5	0.792503
1.480000E-5	0.782632
1.520000E-5	0.786613
1.560000E-5	0.801724
1.600000E-5	0.794372
1.640000E-5	0.774792
1.680000E-5	0.781414
1.720000E-5	0.797906
1.760000E-5	0.797865
1.800000E-5	0.786207
1.840000E-5	0.782104
1.880000E-5	0.795550
1.920000E-5	0.778936
1.960000E-5	0.780886
2.000000E-5	0.773493
2.040000E-5	0.794372
2.080000E-5	0.791447
2.120000E-5	0.785273
2.160000E-5	0.768009
2.200000E-5	0.772965
2.240000E-5	0.769552
2.280000E-5	0.774264
2.320000E-5	0.781617
2.360000E-5	0.777311
2.400000E-5	0.768252
2.440000E-5	0.781658
2.480000E-5	0.771868
2.520000E-5	0.778611
2.560000E-5	0.774102
2.640000E-5	0.772294
2.720000E-5	0.781414
2.800000E-5	0.769999
2.880000E-5	0.769898
2.960000E-5	0.759925
3.040000E-5	0.780987
3.120000E-5	0.753324
3.200000E-5	0.754502
3.280000E-5	0.755822
3.360000E-5	0.757203
3.440000E-5	0.747251
3.520000E-5	0.764332
3.600000E-5	0.756391
3.680000E-5	0.748084
3.760000E-5	0.748551
3.840000E-5	0.748592
3.920000E-5	0.752207
4.000000E-5	0.741138
4.080000E-5	0.740731
4.160000E-5	0.734415
4.240000E-5	0.741381
4.320000E-5	0.737766
4.400000E-5	0.735105
4.480000E-5	0.733582
4.560000E-5	0.742173
4.640000E-5	0.730332
4.720000E-5	0.723975
4.800000E-5	0.729276
4.880000E-5	0.728098
4.960000E-5	0.722817
5.040000E-5	0.718024
5.120000E-5	0.724726
5.280000E-5	0.725986
5.440000E-5	0.728014
5.600000E-5	0.720977
5.760000E-5	0.714559
5.920000E-5	0.712294
6.080000E-5	0.706831
6.240000E-5	0.708952
6.400000E-5	0.701966
6.560000E-5	0.706362
6.720000E-5	0.690714
6.880000E-5	0.701011
7.040000E-5	0.695599
7.200000E-5	0.687627
7.360000E-5	0.690755
7.520000E-5	0.677402
7.680000E-5	0.682408
7.840000E-5	0.685036
8.000000E-5	0.677439
8.160000E-5	0.671103
8.320000E-5	0.669651
8.480000E-5	0.670940
8.640000E-5	0.665467
8.800000E-5	0.659304
8.960000E-5	0.659629
9.120000E-5	0.648226
9.280000E-5	0.658848
9.440000E-5	0.656989
9.600000E-5	0.651252
9.760000E-5	0.645281
9.920000E-5	0.646398
0.000101	0.643636
0.000102	0.637095
0.000106	0.637572
0.000109	0.630463
0.000112	0.626351
0.000115	0.620801
0.000118	0.614597
0.000122	0.610113
0.000125	0.604909
0.000128	0.598745
0.000131	0.600258
0.000134	0.587113
0.000138	0.584172
0.000141	0.582415
0.000144	0.574845
0.000147	0.566173
0.000150	0.567356
0.000154	0.558790
0.000157	0.553660
0.000160	0.553030
0.000163	0.541423
0.000166	0.543010
0.000170	0.537901
0.000173	0.535926
0.000176	0.532209
0.000179	0.527807
0.000182	0.520998
0.000186	0.517835
0.000189	0.507183
0.000192	0.507883
0.000195	0.508152
0.000198	0.501212
0.000202	0.494362
0.000205	0.488127
0.000211	0.482488
0.000218	0.470781
0.000224	0.468479
0.000230	0.458147
0.000237	0.448716
0.000243	0.446858
0.000250	0.436078
0.000256	0.429460
0.000262	0.420460
0.000269	0.411690
0.000275	0.407821
0.000282	0.399299
0.000288	0.396113
0.000294	0.385971
0.000301	0.379830
0.000307	0.368690
0.000314	0.365028
0.000320	0.362597
0.000326	0.354430
0.000333	0.350146
0.000339	0.343708
0.000346	0.336031
0.000352	0.328811
0.000358	0.324452
0.000365	0.319496
0.000371	0.313247
0.000378	0.308710
0.000384	0.304933
0.000390	0.298114
0.000397	0.294884
0.000403	0.288439
0.000410	0.283640
0.000422	0.274025
0.000435	0.266297
0.000448	0.260856
0.000461	0.248095
0.000474	0.240888
0.000486	0.232086
0.000499	0.224564
0.000512	0.217393
0.000525	0.208929
0.000538	0.202817
0.000550	0.197193
0.000563	0.190855
0.000576	0.183547
0.000589	0.179536
0.000602	0.171702
0.000614	0.167255
0.000627	0.161129
0.000640	0.157107
0.000653	0.152317
0.000666	0.147894
0.000678	0.142810
0.000691	0.137626
0.000704	0.132170
0.000717	0.129698
0.000730	0.126274
0.000742	0.122974
0.000755	0.118844
0.000768	0.115151
0.000781	0.110576
0.000794	0.107968
0.000806	0.105566
0.000819	0.102773
0.000845	0.096003
0.000870	0.087659
0.000896	0.082516
0.000922	0.076546
0.000947	0.072568
0.000973	0.069244
0.000998	0.063400
0.001024	0.060710
0.001050	0.055122
0.001075	0.053315
0.001101	0.052014
0.001126	0.047798
0.001152	0.046665
0.001178	0.044538
0.001203	0.043127
0.001229	0.040854
0.001254	0.038014
0.001280	0.035872
0.001306	0.037264
0.001331	0.035561
0.001357	0.034602
0.001382	0.032523
0.001408	0.030423
0.001434	0.028242
0.001459	0.032059
0.001485	0.028108
0.001510	0.028266
0.001536	0.027017
0.001562	0.026737
0.001587	0.025465
0.001613	0.027346
0.001638	0.024256
0.001690	0.026160
0.001741	0.025318
0.001792	0.025039
0.001843	0.024600
0.001894	0.023405
0.001946	0.022038
0.001997	0.021329
0.002048	0.020868
0.002099	0.020425
0.002150	0.017756
0.002202	0.018243
0.002253	0.017431
0.002304	0.016017
0.002355	0.015949
0.002406	0.014265
0.002458	0.014068
0.002509	0.013254
0.002560	0.012915
0.002611	0.011834
0.002662	0.011329
0.002714	0.010620
0.002765	0.010022
0.002816	0.009574
0.002867	0.010272
0.002918	0.009381
0.002970	0.007067
0.003021	0.008153
0.003072	0.009910
0.003123	0.008868
0.003174	0.009100
0.003226	0.008913
0.003277	0.009032
0.003379	0.007857
0.003482	0.007584
0.003584	0.009228
0.003686	0.008431
0.003789	0.007685
0.003891	0.005009
0.003994	0.005295
0.004096	0.003805
0.004198	0.002211
0.004301	0.000992
0.004403	1.247223E-5
0.004506	0.001545
0.004608	0.002847
0.004710	0.002127
0.004813	0.002494
0.004915	0.002932
0.005018	0.003831
0.005120	0.003523
0.005222	0.004462
0.005325	0.005347
0.005427	0.006959
0.005530	0.007080
0.005632	0.009258
0.005734	0.011569
0.005837	0.011147
0.005939	0.010789
0.006042	0.013048
0.006144	0.012603
0.006246	0.013141
0.006349	0.011917
0.006451	0.012482
0.006554	0.011694
0.006758	0.010016
0.006963	0.008090
0.007168	0.006343
0.007373	0.004911
0.007578	0.002938
0.007782	0.005706
0.007987	0.008928
0.008192	0.010403
0.008397	0.012403
0.008602	0.010627
0.008806	0.010756
0.009011	0.011193
0.009216	0.011842
0.009421	0.013464
0.009626	0.009727
0.009830	0.007776
0.010035	0.004809
0.010240	0.005998
0.010445	0.009781
0.010650	0.013075
0.010854	0.012276
0.011059	0.013798
0.011264	0.011988
0.011469	0.009878
0.011674	0.009454
0.011878	0.007861
0.012083	0.005106
0.012288	0.004109
0.012493	0.002608
0.012698	0.001889
0.012902	0.005050
0.013107	0.004839
0.013517	0.006726
0.013926	0.008054
0.014336	0.008463
0.014746	0.009729
0.015155	0.010292
0.015565	0.003081
0.015974	-0.002273
0.016384	0.001401
0.016794	0.005828
0.017203	0.004826
0.017613	0.004971
0.018022	0.004480
0.018432	0.007234
0.018842	0.006884
0.019251	0.009632
0.019661	0.009873
0.020070	0.011987
0.020480	0.007916
0.020890	0.008344
0.021299	0.007336
0.021709	0.007264
0.022118	0.012119
0.022528	0.016728
0.022938	0.014445
0.023347	0.010448
0.023757	0.007739
0.024166	0.009270
0.024576	0.010405
0.024986	0.010199
0.025395	0.010169
0.025805	0.008513
0.026214	0.009543
0.027034	0.009647
0.027853	0.010399
0.028672	0.012371
0.029491	0.003188
0.030310	0.008267
0.031130	0.007022
0.031949	0.007709
0.032768	0.010273
0.033587	0.013603
0.034406	0.009071
0.035226	0.008358
0.036045	0.006599
0.036864	0.008086
0.037683	0.006680
0.038502	0.009531
0.039322	0.012009
0.040141	0.009133
0.040960	0.007860
0.041779	0.010299
0.042598	0.009212
0.043418	0.009910
0.044237	0.008387
0.045056	0.007155
0.045875	0.011635
0.046694	0.015187
0.047514	0.011937
0.048333	0.005262
0.049152	0.011105
0.049971	0.007662
0.050790	0.006009
0.051610	0.001904
0.052429	0.005698
0.054067	0.010518
0.055706	0.008812
0.057344	0.004128
0.058982	0.010955
0.060621	0.011118
0.062259	0.010446
0.063898	0.008651
0.065536	0.008474
0.067174	0.006105
0.068813	0.005025
0.070451	0.008329
0.072090	0.008259
0.073728	0.007493
0.075366	0.005723
0.077005	0.006056
0.078643	0.004103
0.080282	0.002867
0.081920	0.003143
0.083558	0.007634
0.085197	0.006584
0.086835	0.005293
0.088474	0.007445
0.090112	0.004900
0.091750	0.011938
0.093389	0.003537
0.095027	0.005059
0.096666	0.007412
0.098304	0.006119
0.099942	0.006771
0.101581	0.005325
0.103219	0.007278
0.104858	0.008206
0.108134	0.008937
0.111411	0.008471
0.114688	0.007477
0.117965	0.006741
0.121242	0.003197
0.124518	0.002786
0.127795	0.006596
0.131072	0.007431
0.134349	0.007408
0.137626	0.003605
0.140902	-0.000482
0.144179	0.005030
0.147456	0.006398
0.150733	0.006476
0.154010	0.006464
0.157286	0.007932
0.160563	0.005263
0.163840	0.009003
0.167117	0.007701
0.170394	0.005862
0.173670	0.007387
0.176947	0.003670
0.180224	0.004873
0.183501	0.006061
0.186778	0.004234
0.190054	0.004141
0.193331	-0.002391
0.196608	-0.000548
0.199885	0.005092
0.203162	0.002729
0.206438	0.009200
0.209715	0.004976
0.216269	0.005396
0.222822	0.005140
0.229376	0.003011
0.235930	0.004944
0.242483	0.006065
0.249037	0.001788
0.255590	0.004247
0.262144	0.000518
0.268698	0.005621
0.275251	0.004387
0.281805	0.006460
0.288358	0.006084
0.294912	0.006489
0.301466	0.003035
0.308019	0.003802
0.314573	0.005215
0.321126	0.003999
0.327680	0.003701
0.334234	0.005462
0.340787	0.007197
0.347341	0.003557
0.353894	0.004249
0.360448	0.004582
0.367002	0.003839
0.373555	0.006854
0.380109	0.004107
0.386662	0.005428
0.393216	0.005926
0.399770	0.007066
0.406323	0.007526
0.412877	0.004643
0.419430	0.005298
0.432538	0.003575
0.445645	0.005782
0.458752	0.005056
0.471859	0.003479
0.484966	0.003614
0.498074	0.003618
0.511181	0.005038
0.524288	0.005508
0.537395	0.001369
0.550502	0.004784
0.563610	0.002091
0.576717	0.004909
0.589824	0.004060
0.602931	0.002403
0.616038	0.003806
0.629146	0.003019
0.642253	0.002803
0.655360	0.002997
0.668467	0.002381
0.681574	0.003397
0.694682	0.003691
0.707789	0.005640
0.720896	0.004491
0.734003	0.004808
0.747110	0.003061
0.760218	0.005525
0.773325	0.002094
0.786432	0.003232
0.799539	0.003663
0.812646	0.000834
0.825754	0.006643
0.838861	0.002142
0.865075	0.003055
0.891290	0.001606
0.917504	0.002130
0.943718	0.001488
0.969933	0.001211
0.996147	0.000974
1.022362	0.001702
1.048576	0.001605
1.074790	0.000956
1.101005	-0.000277
1.127219	0.000870
1.153434	0.000905
1.179648	0.001256
1.205862	0.000346
1.232077	0.000248
1.258291	0.002595
1.284506	0.000961
1.310720	0.001705
1.336934	0.001278
1.363149	0.000529
1.389363	-0.000105
1.415578	-2.585789E-5
1.441792	0.000674
1.468006	-0.000704
1.494221	-0.000352
1.520435	0.000885
1.546650	0.000872
1.572864	-0.000759
1.599078	-0.001212
1.625293	0.000316
1.651507	0.001138
1.677722	0.002116
1.730150	0.001764
1.782579	0.001300
1.835008	-0.000159
1.887437	0.001181
1.939866	0.000567
1.992294	0.000155
2.044723	0.000515
2.097152	3.153520E-5
2.149581	-0.001357
2.202010	0.000471
2.254438	0.001137
2.306867	0.000361
2.359296	0.000898
2.411725	0.001036
2.464154	0.000190
2.516582	0.000550
2.569011	3.955111E-5
2.621440	0.001700
2.673869	-0.000191
2.726298	0.001042
2.778726	-0.000246
2.831155	-0.000888
2.883584	-0.000256
2.936013	0.001055
2.988442	-0.001489
3.040870	-0.001308
3.093299	0.000411
3.145728	-3.002296E-5
3.198157	-5.106667E-5
3.250586	0.000383
3.303015	0.001949
3.355443	0.001016
3.460301	0.000220
3.565158	-0.000968
3.670016	-0.000401
3.774873	-0.000579
3.879731	-0.000498
3.984589	0.000320
4.089447	-0.000115
4.194304	0.000315
4.299161	-0.000508
4.404019	-0.000948
4.508877	0.000601
4.613734	0.000395
4.718592	0.000547
4.823450	0.001598
4.928307	0.001642
5.033165	0.002337
5.138022	0.001694
5.242880	0.001497
5.347738	0.001614
5.452595	8.969547E-5
5.557453	0.000759
5.662311	0.001015
5.767168	0.001178
5.872025	0.001562
5.976883	8.097500E-6
6.081741	0.001303
6.186598	-5.185247E-5
6.291456	0.000221
6.396314	0.001153
6.501171	0.001035
6.606029	0.001185
6.710886	0.000580
6.920601	0.000709
7.130317	0.000949
7.340032	0.000633
7.549747	0.000961
7.759462	5.101194E-5
7.969178	0.000169
8.178893	0.000250
8.388608	0.000576
8.598323	0.000365
8.808039	0.001099
9.017754	0.001520
9.227468	0.002149
9.437184	0.000256
9.646899	-0.000386
9.856614	0.001023
10.066330	-0.000508
10.276045	0.000198
10.485760	-0.000453
10.695476	4.560713E-6
10.905190	-0.000431
11.114905	-0.000999
11.324621	-0.000913
11.534336	-0.000577
11.744051	-0.002145
11.953767	-0.001367
12.163482	0.000988
12.373197	-0.000946
12.582912	0.000452
12.792627	-0.001520
13.002342	-0.001052
13.212058	-0.001328
13.421773	-0.002974
13.841203	-0.003727
14.260633	-0.003153
14.680064	-0.000817
15.099494	-0.000359
15.518925	0.002963
15.938355	-0.003456
16.357786	-0.002653
16.777216	-0.006203
17.196646	-0.003621
17.616077	-0.002819
18.035507	0.000728
18.454937	0.000000
18.874369	NaN
19.293798	NaN
19.713228	NaN
20.132660	NaN
20.552090	NaN
20.971519	NaN
21.390951	NaN
21.810381	NaN
22.229811	NaN
22.649242	NaN
23.068672	NaN
23.488102	NaN
23.907534	NaN
24.326963	NaN
24.746393	NaN
25.165825	NaN
25.585255	NaN
26.004684	NaN
26.424116	NaN
26.843546	NaN
27.682405	NaN
28.521267	NaN
29.360128	NaN
30.198988	NaN
31.037849	NaN
31.876711	NaN
32.715572	NaN
33.554432	NaN
34.393291	NaN
35.232155	NaN
36.071014	NaN
36.909874	NaN
37.748737	NaN
38.587597	NaN
39.426456	NaN
40.265320	NaN
41.104179	NaN
41.943039	NaN
42.781902	NaN
43.620762	NaN
44.459621	NaN
45.298485	NaN
46.137344	NaN
46.976204	NaN
47.815067	NaN
48.653927	NaN
49.492786	NaN
50.331650	NaN
51.170509	NaN
52.009369	NaN
52.848232	NaN
53.687092	NaN
55.364811	NaN
57.042534	NaN
58.720257	NaN
60.397976	NaN
62.075699	NaN
63.753422	NaN
65.431145	NaN
67.108864	NaN
68.786583	NaN
70.464310	NaN
72.142029	NaN
73.819748	NaN
75.497475	NaN
77.175194	NaN
78.852913	NaN
80.530640	NaN
82.208359	NaN
83.886078	NaN
85.563805	NaN
87.241524	NaN
88.919243	NaN
90.596970	NaN
92.274689	NaN
93.952408	NaN
95.630135	NaN
97.307854	NaN
98.985573	NaN
100.663300	NaN
102.341019	NaN
104.018738	NaN
105.696465	NaN
107.374184	NaN
110.729622	NaN
114.085068	NaN
117.440514	NaN
120.795952	NaN
124.151398	NaN
127.506844	NaN
130.862289	NaN
134.217728	NaN
137.573166	NaN
140.928619	NaN
144.284058	NaN
147.639496	NaN
150.994949	NaN
154.350388	NaN
157.705826	NaN
161.061279	NaN
164.416718	NaN
167.772156	NaN
171.127609	NaN
174.483047	NaN
177.838486	NaN
181.193939	NaN
184.549377	NaN
187.904816	NaN
191.260269	NaN
194.615707	NaN
197.971146	NaN
201.326599	NaN
204.682037	NaN
208.037476	NaN
211.392929	NaN
214.748367	NaN
221.459244	NaN
228.170135	NaN
234.881027	NaN
241.591904	NaN
248.302795	NaN
255.013687	NaN
261.724579	NaN
268.435455	NaN
275.146332	NaN
281.857239	NaN
288.568115	NaN
295.278992	NaN
301.989899	NaN
308.700775	NaN
315.411652	NaN
322.122559	NaN
328.833435	NaN
335.544312	NaN
342.255219	NaN
348.966095	NaN
355.676971	NaN
362.387878	NaN
369.098755	NaN
375.809631	NaN
382.520538	NaN
389.231415	NaN
395.942291	NaN
402.653198	NaN
409.364075	NaN
416.074951	NaN
422.785858	NaN
429.496735	NaN
442.918488	NaN
456.340271	NaN
469.762054	NaN
483.183807	NaN
496.605591	NaN
510.027374	NaN
523.449158	NaN
536.870911	NaN
550.292664	NaN
563.714478	NaN
577.136230	NaN
590.557983	NaN
603.979797	NaN
617.401550	NaN
630.823303	NaN
644.245117	NaN
657.666870	NaN
671.088623	NaN
684.510437	NaN
697.932190	NaN
711.353943	NaN
724.775757	NaN
738.197510	NaN
751.619263	NaN
765.041077	NaN
778.462830	NaN
791.884583	NaN
805.306396	NaN
818.728149	NaN
832.149902	NaN
845.571716	NaN
858.993469	NaN
885.836975	NaN
912.680542	NaN
939.524109	NaN
966.367615	NaN
993.211182	NaN
1020.054749	NaN
1046.898315	NaN
1073.741821	NaN
1100.585327	NaN
1127.428955	NaN
1154.272461	NaN
1181.115967	NaN
1207.959595	NaN
1234.803101	NaN
1261.646606	NaN
1288.490234	NaN
1315.333740	NaN
1342.177246	NaN
1369.020874	NaN
1395.864380	NaN
1422.707886	NaN
1449.551514	NaN
1476.395020	NaN
1503.238525	NaN
1530.082153	NaN
1556.925659	NaN
1583.769165	NaN
1610.612793	NaN
1637.456299	NaN
1664.299805	NaN
1691.143433	NaN
1717.986938	NaN
1771.673950	NaN
1825.361084	NaN
1879.048218	NaN
1932.735229	NaN
1986.422363	NaN
2040.109497	NaN
2093.796631	NaN
2147.483643	NaN
2201.170654	NaN
2254.857910	NaN
2308.544922	NaN
2362.231934	NaN
2415.919189	NaN
2469.606201	NaN
2523.293213	NaN
2576.980469	NaN
2630.667480	NaN
2684.354492	NaN
2738.041748	NaN
2791.728760	NaN
2845.415771	NaN
2899.103027	NaN
2952.790039	NaN
3006.477051	NaN
3060.164307	NaN
3113.851318	NaN
3167.538330	NaN
3221.225586	NaN
3274.912598	NaN
3328.599609	NaN
3382.286865	NaN
3435.973877	NaN
0.000000	NaN
0.000000	NaN
0.000000	NaN
0.000000	NaN
0.000000	NaN
0.000000	NaN
0.000000	NaN
0.000000	NaN
0.000000	NaN
0.000000	NaN
0.000000	NaN
0.000000	NaN
0.000000	NaN
0.000000	NaN
0.000000	NaN
0.000000	NaN
0.000000	NaN
0.000000	NaN
0.000000	NaN
0.000000	NaN
0.000000	NaN
0.000000	NaN
0.000000	NaN
0.000000	NaN
0.000000	NaN
0.000000	NaN
0.000000	NaN
0.000000	NaN
0.000000	NaN
0.000000	NaN
0.000000	NaN
0.000000	NaN

Count Rate History (KHz)  CR CHA / CR CHB
0.000000	58.803558	55.894852
0.104858	69.751740	71.544647
0.209715	59.404373	52.661896
0.314573	58.059692	57.115555
0.419430	51.813126	49.419403
0.524288	53.539276	50.439835
0.629146	61.759949	59.719086
0.734003	63.867569	58.012009
0.838861	58.698654	55.990219
0.943718	53.892136	49.829483
1.048576	64.477921	63.114166
1.153434	55.665970	56.219101
1.258291	57.907104	53.291321
1.363149	53.539276	48.341751
1.468006	52.452087	48.990250
1.572864	47.740936	44.994354
1.677722	59.108734	55.780411
1.782579	46.682358	44.956207
1.887437	60.462952	55.160522
1.992294	63.419342	62.456131
2.097152	53.195953	49.362183
2.202010	48.751831	45.642853
2.306867	51.240921	48.170090
2.411725	56.667328	52.728653
2.516582	56.276321	53.453445
2.621440	56.247711	54.073334
2.726298	60.644150	58.259964
2.831155	62.799454	60.739517
2.936013	63.991547	60.758591
3.040870	50.668716	49.371719
3.145728	59.995651	56.581497
3.250586	66.022873	64.496994
3.355443	53.720474	49.877167
3.460301	49.791336	45.328140
3.565158	59.480667	58.774948
3.670016	57.067871	52.995682
3.774874	58.803558	55.217743
3.879731	43.401718	41.809082
3.984589	58.126450	60.606003
4.089446	62.170029	56.848526
4.194304	56.810379	52.480698
4.299162	51.012039	48.274994
4.404019	51.879883	48.198700
4.508877	52.661896	48.255920
4.613734	51.736832	47.712326
4.718592	52.165985	48.952103
4.823450	53.977966	50.783157
4.928307	52.709579	49.581528
5.033165	50.134659	48.732758
5.138022	52.242279	49.428940
5.242880	56.219101	51.717758
5.347738	51.717758	49.095154
5.452595	53.968430	51.765442
5.557453	57.630539	55.103302
5.662310	54.550171	50.888062
5.767168	51.374435	48.990250
5.872026	63.762665	60.129166
5.976883	61.321259	59.452057
6.081741	47.626495	44.670105
6.186598	55.665970	50.821304
6.291456	52.223206	48.189163
6.396314	52.919388	49.505234
6.501171	58.603287	58.088303
6.606029	58.612823	55.131912
6.710886	57.983398	55.932999
6.815744	47.273636	44.183731
6.920602	53.596497	51.469803
7.025459	55.599213	53.815842
7.130317	51.021576	49.962997
7.235174	60.386658	56.638718
7.340032	61.464310	60.205460
7.444890	56.934357	53.834915
7.549747	50.840378	45.986176
7.654605	48.904419	48.017502
7.759462	57.859421	53.491592
7.864320	51.813126	48.370361
7.969178	56.343079	54.426193
8.074035	51.946640	47.817230
8.178893	56.943893	52.795410
8.283750	58.336258	54.302216
8.388608	51.460266	46.577454
8.493466	53.005219	50.287247
8.598323	54.922104	52.623749
8.703181	53.205490	49.505234
8.808038	60.081482	57.868958
8.912896	56.886673	53.071976
9.017754	59.185028	56.200027
9.122611	58.012009	55.084229
9.227469	58.851242	58.240891
9.332326	57.716370	54.397583
9.437184	55.389404	53.453445
9.542042	54.893494	51.078796
9.646899	65.202713	60.663223
9.751757	58.641434	56.066513
9.856614	63.495636	59.900284
9.961472	54.912567	51.383972
10.066330	53.882599	49.772263
10.171187	54.655075	48.627853
10.276045	56.238174	56.037903
10.380902	56.505203	53.043365
10.485760	58.975220	55.179596
10.590618	53.634644	51.612854
10.695475	61.626434	58.813095
10.800333	56.266785	53.472519
10.905190	57.868958	54.836273
11.010048	55.398941	52.862167
11.114906	64.592361	61.502457
11.219763	56.371689	49.743652
11.324621	56.629181	53.949356
11.429478	53.281784	49.953461
11.534336	66.738129	63.362122
11.639194	55.932999	51.546097
11.744051	56.314468	53.930283
11.848909	54.168701	50.945282
11.953766	60.644150	58.469772
12.058624	55.389404	53.281784
12.163482	57.497025	54.330826
12.268339	60.997009	58.526993
12.373197	62.322617	56.076050
12.478054	56.991577	52.776337
12.582912	52.270889	49.762726
12.687770	57.554245	53.815842
12.792627	51.689148	50.706863
12.897485	56.152344	53.930283
13.002342	60.453415	55.818558
13.107200	74.892044	74.872971
13.212058	57.268143	53.281784
13.316915	72.727203	71.430206
13.421773	67.014694	63.333511
13.526630	57.315826	53.987503
13.631488	56.581497	55.389404
13.736346	57.611465	56.104660
13.841203	51.240921	49.905777
13.946061	58.097839	54.874420
14.050918	60.243607	56.934357
14.155776	57.888031	53.730011
14.260634	48.704147	45.433044
14.365491	57.315826	54.082870
14.470349	55.093765	53.005219
14.575206	53.291321	50.582886
14.680064	59.976578	59.175491
14.784922	56.695938	53.701401
14.889779	60.596466	55.818558
14.994637	50.134659	47.292709
15.099494	52.967072	50.258636
15.204352	58.250427	55.713654
15.309210	50.802231	47.893524
15.414067	57.907104	54.759979
15.518925	51.736832	47.721863
15.623782	51.956177	49.276352
15.728640	61.826706	60.138702
15.833498	61.092377	57.926178
15.938355	52.604675	48.151016
16.043213	55.313110	52.490234
16.148070	58.975220	55.904388
16.252928	57.611465	53.300858
16.357786	59.633255	58.250427
16.462643	58.784485	56.915283
16.567501	55.818558	53.052902
16.672358	62.446594	59.394836
16.777216	61.407089	58.679581
16.882074	55.103302	53.405762
16.986931	55.103302	49.753189
17.091789	48.418045	45.070648
17.196646	55.904388	51.641464
17.301504	66.747665	64.344406
17.406362	55.923462	54.397583
17.511219	63.028336	60.415268
17.616077	54.779053	54.826736
17.720934	57.382584	52.423477
17.825792	58.050156	55.093765
17.930650	64.830780	68.693161
18.035507	93.297958	87.490082
18.140365	74.481964	76.904297
18.245222	72.698593	67.176819
18.350080	73.451996	71.935654
18.454938	83.551407	80.327988
18.559795	72.975159	74.825287
18.664653	76.675415	71.039200
18.769510	63.667297	62.150955
18.874368	67.749023	64.315796
18.979226	67.005157	65.345764
19.084083	60.625076	57.621002
19.188941	66.232681	64.115524
19.293798	65.765381	60.901642
