1/9/2026	1:09 PM
Pseudo Cross Correlation
Scattering angle:	130.0
Duration (s):	20
Wavelength (nm):	632.8
Refractive index:	1.330
Viscosity (mPas):	0.712
Temperature (K):	308.7
Laser intensity (mW):	2.655754
Average Count rate  A (kHz):	249.0
Average Count rate  B (kHz):	260.9
Intercept:	0.8676
Cumulant 1st	123.49
Cumulant 2nd	123.82	7.04
Cumulant 3rd	123.49	9.03

Lag time (s)         g2-1
1.250000E-8	0.869047
2.500000E-8	0.862832
3.750000E-8	0.869420
5.000000E-8	0.869731
6.250000E-8	0.885827
7.500000E-8	0.869793
8.750000E-8	0.874205
1.000000E-7	0.880171
1.125000E-7	0.854691
1.250000E-7	0.870476
1.375000E-7	0.857052
1.500000E-7	0.870228
1.625000E-7	0.871284
1.750000E-7	0.858357
1.875000E-7	0.867555
2.000000E-7	0.867058
2.125000E-7	0.877748
2.250000E-7	0.877437
2.375000E-7	0.871533
2.500000E-7	0.883838
2.625000E-7	0.874143
2.750000E-7	0.867928
2.875000E-7	0.852391
3.000000E-7	0.856679
3.125000E-7	0.852951
3.250000E-7	0.859165
3.375000E-7	0.860098
3.500000E-7	0.885454
3.625000E-7	0.878618
3.750000E-7	0.856679
3.875000E-7	0.850154
4.000000E-7	0.864572
4.125000E-7	0.880606
4.250000E-7	0.857549
4.375000E-7	0.873459
4.500000E-7	0.861403
4.625000E-7	0.857798
4.750000E-7	0.858482
4.875000E-7	0.840956
5.000000E-7	0.888251
5.125000E-7	0.886262
5.250000E-7	0.870849
5.375000E-7	0.875013
5.500000E-7	0.854939
5.625000E-7	0.873397
5.750000E-7	0.861651
5.875000E-7	0.877002
6.000000E-7	0.868301
6.125000E-7	0.861589
6.250000E-7	0.858979
6.375000E-7	0.882533
6.500000E-7	0.851521
6.625000E-7	0.862894
6.750000E-7	0.873584
6.875000E-7	0.840832
7.000000E-7	0.849346
7.125000E-7	0.851832
7.250000E-7	0.870974
7.375000E-7	0.854318
7.500000E-7	0.860533
7.625000E-7	0.864262
7.750000E-7	0.847979
7.875000E-7	0.886697
8.000000E-7	0.877810
8.250000E-7	0.858513
8.500000E-7	0.860035
8.750000E-7	0.861123
9.000000E-7	0.864914
9.250000E-7	0.863609
9.500000E-7	0.851614
9.750000E-7	0.856928
1.000000E-6	0.866561
1.025000E-6	0.871999
1.050000E-6	0.871036
1.075000E-6	0.853572
1.100000E-6	0.872838
1.125000E-6	0.867804
1.150000E-6	0.869140
1.175000E-6	0.858140
1.200000E-6	0.865846
1.225000E-6	0.860160
1.250000E-6	0.869389
1.275000E-6	0.874827
1.300000E-6	0.852826
1.325000E-6	0.869109
1.350000E-6	0.866592
1.375000E-6	0.874485
1.400000E-6	0.867027
1.425000E-6	0.865598
1.450000E-6	0.855778
1.475000E-6	0.860222
1.500000E-6	0.854069
1.525000E-6	0.874236
1.550000E-6	0.848414
1.575000E-6	0.855312
1.600000E-6	0.872931
1.650000E-6	0.860812
1.700000E-6	0.854939
1.750000E-6	0.864899
1.800000E-6	0.865116
1.850000E-6	0.858047
1.900000E-6	0.874609
1.950000E-6	0.850806
2.000000E-6	0.862972
2.050000E-6	0.865473
2.100000E-6	0.857487
2.150000E-6	0.863127
2.200000E-6	0.862009
2.250000E-6	0.864790
2.300000E-6	0.861667
2.350000E-6	0.868130
2.400000E-6	0.853836
2.450000E-6	0.869016
2.500000E-6	0.859554
2.550000E-6	0.860175
2.600000E-6	0.856648
2.650000E-6	0.863562
2.700000E-6	0.858715
2.750000E-6	0.859523
2.800000E-6	0.858824
2.850000E-6	0.867043
2.900000E-6	0.850837
2.950000E-6	0.863997
3.000000E-6	0.862677
3.050000E-6	0.859367
3.100000E-6	0.858280
3.150000E-6	0.856944
3.200000E-6	0.869606
3.300000E-6	0.858893
3.400000E-6	0.856773
3.500000E-6	0.860300
3.600000E-6	0.860766
3.700000E-6	0.863842
3.800000E-6	0.857107
3.900000E-6	0.855693
4.000000E-6	0.859204
4.100000E-6	0.860230
4.200000E-6	0.856221
4.300000E-6	0.856120
4.400000E-6	0.856749
4.500000E-6	0.853859
4.600000E-6	0.859018
4.700000E-6	0.855607
4.800000E-6	0.858886
4.900000E-6	0.854877
5.000000E-6	0.856073
5.100000E-6	0.848857
5.200000E-6	0.856415
5.300000E-6	0.856641
5.400000E-6	0.853362
5.500000E-6	0.850123
5.600000E-6	0.860509
5.700000E-6	0.856244
5.800000E-6	0.849276
5.900000E-6	0.861504
6.000000E-6	0.845625
6.100000E-6	0.858567
6.200000E-6	0.851436
6.300000E-6	0.850977
6.400000E-6	0.857301
6.600000E-6	0.849645
6.800000E-6	0.854629
7.000000E-6	0.850096
7.200000E-6	0.848414
7.400000E-6	0.846984
7.600000E-6	0.849424
7.800000E-6	0.849051
8.000000E-6	0.848476
8.200000E-6	0.852216
8.400000E-6	0.845042
8.600000E-6	0.850531
8.800000E-6	0.845007
9.000000E-6	0.843333
9.200000E-6	0.847843
9.400000E-6	0.846957
9.600000E-6	0.843108
9.800000E-6	0.840622
1.000000E-5	0.841857
1.020000E-5	0.841232
1.040000E-5	0.838924
1.060000E-5	0.842591
1.080000E-5	0.841962
1.100000E-5	0.838346
1.120000E-5	0.838858
1.140000E-5	0.840296
1.160000E-5	0.836066
1.180000E-5	0.836322
1.200000E-5	0.838268
1.220000E-5	0.836163
1.240000E-5	0.835091
1.260000E-5	0.841072
1.280000E-5	0.837223
1.320000E-5	0.830334
1.360000E-5	0.835648
1.400000E-5	0.832989
1.440000E-5	0.830927
1.480000E-5	0.830084
1.520000E-5	0.832770
1.560000E-5	0.829913
1.600000E-5	0.827567
1.640000E-5	0.826759
1.680000E-5	0.825446
1.720000E-5	0.827322
1.760000E-5	0.823275
1.800000E-5	0.824943
1.840000E-5	0.822245
1.880000E-5	0.819870
1.920000E-5	0.819443
1.960000E-5	0.816209
2.000000E-5	0.819913
2.040000E-5	0.817070
2.080000E-5	0.817918
2.120000E-5	0.814582
2.160000E-5	0.810831
2.200000E-5	0.814052
2.240000E-5	0.809785
2.280000E-5	0.811806
2.320000E-5	0.812834
2.360000E-5	0.810016
2.400000E-5	0.810835
2.440000E-5	0.805865
2.480000E-5	0.806073
2.520000E-5	0.803904
2.560000E-5	0.805939
2.640000E-5	0.804370
2.720000E-5	0.803014
2.800000E-5	0.798671
2.880000E-5	0.797571
2.960000E-5	0.795722
3.040000E-5	0.795150
3.120000E-5	0.794323
3.200000E-5	0.791323
3.280000E-5	0.791919
3.360000E-5	0.786153
3.440000E-5	0.784657
3.520000E-5	0.781519
3.600000E-5	0.780573
3.680000E-5	0.779508
3.760000E-5	0.779992
3.840000E-5	0.774368
3.920000E-5	0.774316
4.000000E-5	0.772529
4.080000E-5	0.772127
4.160000E-5	0.768027
4.240000E-5	0.764187
4.320000E-5	0.762652
4.400000E-5	0.762523
4.480000E-5	0.762310
4.560000E-5	0.760801
4.640000E-5	0.758979
4.720000E-5	0.754669
4.800000E-5	0.754871
4.880000E-5	0.750532
4.960000E-5	0.750846
5.040000E-5	0.750235
5.120000E-5	0.745059
5.280000E-5	0.742260
5.440000E-5	0.740802
5.600000E-5	0.736507
5.760000E-5	0.732775
5.920000E-5	0.731113
6.080000E-5	0.725795
6.240000E-5	0.723845
6.400000E-5	0.717966
6.560000E-5	0.716238
6.720000E-5	0.712996
6.880000E-5	0.708098
7.040000E-5	0.703513
7.200000E-5	0.702763
7.360000E-5	0.700462
7.520000E-5	0.695934
7.680000E-5	0.692467
7.840000E-5	0.689635
8.000000E-5	0.685872
8.160000E-5	0.683638
8.320000E-5	0.678524
8.480000E-5	0.676192
8.640000E-5	0.672665
8.800000E-5	0.669829
8.960000E-5	0.668181
9.120000E-5	0.661398
9.280000E-5	0.660040
9.440000E-5	0.656301
9.600000E-5	0.655323
9.760000E-5	0.651612
9.920000E-5	0.647540
0.000101	0.644320
0.000102	0.642713
0.000106	0.636986
0.000109	0.629721
0.000112	0.624480
0.000115	0.618901
0.000118	0.612365
0.000122	0.606889
0.000125	0.601586
0.000128	0.595254
0.000131	0.590530
0.000134	0.586005
0.000138	0.579173
0.000141	0.573529
0.000144	0.568162
0.000147	0.562027
0.000150	0.556770
0.000154	0.551852
0.000157	0.547818
0.000160	0.542445
0.000163	0.536820
0.000166	0.532165
0.000170	0.525267
0.000173	0.521869
0.000176	0.517484
0.000179	0.512654
0.000182	0.507354
0.000186	0.502440
0.000189	0.497467
0.000192	0.494362
0.000195	0.487911
0.000198	0.483978
0.000202	0.479504
0.000205	0.473794
0.000211	0.466620
0.000218	0.457280
0.000224	0.447839
0.000230	0.440472
0.000237	0.431630
0.000243	0.424271
0.000250	0.416319
0.000256	0.407667
0.000262	0.399928
0.000269	0.392508
0.000275	0.385318
0.000282	0.378209
0.000288	0.371468
0.000294	0.364006
0.000301	0.357305
0.000307	0.350497
0.000314	0.344276
0.000320	0.338392
0.000326	0.331054
0.000333	0.325359
0.000339	0.318337
0.000346	0.312567
0.000352	0.306625
0.000358	0.301313
0.000365	0.296233
0.000371	0.290217
0.000378	0.284277
0.000384	0.278776
0.000390	0.273289
0.000397	0.268024
0.000403	0.263225
0.000410	0.258149
0.000422	0.249457
0.000435	0.240530
0.000448	0.230827
0.000461	0.223222
0.000474	0.214586
0.000486	0.206295
0.000499	0.199653
0.000512	0.192422
0.000525	0.185297
0.000538	0.179034
0.000550	0.172344
0.000563	0.165878
0.000576	0.159816
0.000589	0.153875
0.000602	0.147975
0.000614	0.142841
0.000627	0.137197
0.000640	0.131850
0.000653	0.127294
0.000666	0.122246
0.000678	0.117388
0.000691	0.113077
0.000704	0.108283
0.000717	0.104164
0.000730	0.100640
0.000742	0.096411
0.000755	0.092628
0.000768	0.089457
0.000781	0.085851
0.000794	0.081928
0.000806	0.078351
0.000819	0.075424
0.000845	0.069574
0.000870	0.064000
0.000896	0.059031
0.000922	0.054887
0.000947	0.050328
0.000973	0.046460
0.000998	0.043325
0.001024	0.039976
0.001050	0.036172
0.001075	0.033482
0.001101	0.030737
0.001126	0.027964
0.001152	0.025038
0.001178	0.022630
0.001203	0.021047
0.001229	0.019511
0.001254	0.017942
0.001280	0.016199
0.001306	0.015216
0.001331	0.014598
0.001357	0.014302
0.001382	0.014435
0.001408	0.014239
0.001434	0.013599
0.001459	0.012729
0.001485	0.011924
0.001510	0.011206
0.001536	0.010467
0.001562	0.010732
0.001587	0.009844
0.001613	0.008707
0.001638	0.008037
0.001690	0.006717
0.001741	0.005426
0.001792	0.005216
0.001843	0.004980
0.001894	0.004572
0.001946	0.004830
0.001997	0.004799
0.002048	0.005224
0.002099	0.004695
0.002150	0.004013
0.002202	0.003668
0.002253	0.003241
0.002304	0.002954
0.002355	0.003621
0.002406	0.005080
0.002458	0.006235
0.002509	0.006818
0.002560	0.006557
0.002611	0.006693
0.002662	0.007174
0.002714	0.007383
0.002765	0.008123
0.002816	0.008630
0.002867	0.009193
0.002918	0.009196
0.002970	0.010029
0.003021	0.010437
0.003072	0.009857
0.003123	0.010078
0.003174	0.009676
0.003226	0.009460
0.003277	0.008918
0.003379	0.007057
0.003482	0.005297
0.003584	0.002286
0.003686	-0.000506
0.003789	-0.001438
0.003891	-0.001806
0.003994	-0.000636
0.004096	0.000691
0.004198	0.001525
0.004301	0.001634
0.004403	0.001484
0.004506	0.001757
0.004608	0.002121
0.004710	0.002516
0.004813	0.002221
0.004915	0.002183
0.005018	0.002289
0.005120	0.001259
0.005222	0.000158
0.005325	-0.000788
0.005427	-0.000390
0.005530	-0.001132
0.005632	-0.001293
0.005734	-0.001197
0.005837	-0.001048
0.005939	-0.001392
0.006042	-0.001099
0.006144	-0.001576
0.006246	-0.001342
0.006349	-0.000521
0.006451	0.000558
0.006554	0.001056
0.006758	0.001246
0.006963	-0.000527
0.007168	-0.003146
0.007373	-0.006386
0.007578	-0.009392
0.007782	-0.009936
0.007987	-0.007691
0.008192	-0.005768
0.008397	-0.003442
0.008602	-0.002278
0.008806	0.000693
0.009011	0.003458
0.009216	0.002717
0.009421	0.000526
0.009626	-0.000700
0.009830	-0.000649
0.010035	0.000148
0.010240	-0.001381
0.010445	-0.001197
0.010650	-0.002095
0.010854	-0.005207
0.011059	-0.007955
0.011264	-0.008389
0.011469	-0.005620
0.011674	-0.006119
0.011878	-0.004145
0.012083	-0.001148
0.012288	0.001203
0.012493	0.001719
0.012698	0.001293
0.012902	-0.000882
0.013107	-0.001959
0.013517	-0.001020
0.013926	-0.000301
0.014336	0.001070
0.014746	0.002053
0.015155	-0.001707
0.015565	-8.734292E-5
0.015974	0.000534
0.016384	0.002353
0.016794	0.000569
0.017203	0.000703
0.017613	0.004255
0.018022	0.004614
0.018432	0.004087
0.018842	0.003495
0.019251	-3.115445E-5
0.019661	0.000744
0.020070	0.001172
0.020480	0.002316
0.020890	0.004370
0.021299	0.001134
0.021709	-0.000758
0.022118	-0.000589
0.022528	9.983607E-5
0.022938	0.002227
0.023347	0.003296
0.023757	0.001031
0.024166	0.000740
0.024576	0.002798
0.024986	0.002916
0.025395	0.000266
0.025805	-0.005648
0.026214	-0.003114
0.027034	0.000596
0.027853	0.003722
0.028672	0.001586
0.029491	-0.001456
0.030310	-0.001030
0.031130	0.000280
0.031949	-0.000369
0.032768	0.005287
0.033587	0.001114
0.034406	-0.001709
0.035226	0.000645
0.036045	0.004107
0.036864	0.003900
0.037683	0.006550
0.038502	0.004863
0.039322	0.004135
0.040141	0.000750
0.040960	0.004548
0.041779	-0.002951
0.042598	-0.002163
0.043418	0.002364
0.044237	-0.000167
0.045056	-0.004652
0.045875	-0.005083
0.046694	-0.003949
0.047514	-0.004880
0.048333	-0.000917
0.049152	0.002245
0.049971	0.004364
0.050790	0.003077
0.051610	0.001898
0.052429	0.001578
0.054067	0.001522
0.055706	6.084171E-5
0.057344	0.002732
0.058982	0.001280
0.060621	-0.002625
0.062259	-0.002719
0.063898	-0.002078
0.065536	0.003558
0.067174	0.003454
0.068813	0.003799
0.070451	-0.000612
0.072090	0.000655
0.073728	0.005663
0.075366	-0.001465
0.077005	-0.002025
0.078643	-0.002866
0.080282	-0.002236
0.081920	-0.001296
0.083558	0.000144
0.085197	0.001223
0.086835	-0.001760
0.088474	-0.004712
0.090112	-2.867256E-6
0.091750	-0.002936
0.093389	-0.001591
0.095027	-0.002254
0.096666	0.003020
0.098304	1.722723E-5
0.099942	0.001773
0.101581	-0.000364
0.103219	-0.000627
0.104858	0.005130
0.108134	0.002311
0.111411	0.003067
0.114688	6.233680E-5
0.117965	-0.003515
0.121242	-0.002564
0.124518	-0.000268
0.127795	0.000717
0.131072	0.001274
0.134349	0.000641
0.137626	0.007465
0.140902	0.001374
0.144179	-0.002720
0.147456	0.000728
0.150733	0.002180
0.154010	0.002426
0.157286	0.000518
0.160563	-0.001768
0.163840	0.001046
0.167117	-0.000604
0.170394	-0.002029
0.173670	-0.001571
0.176947	-0.001648
0.180224	0.001715
0.183501	0.001945
0.186778	-0.002436
0.190054	-4.512307E-5
0.193331	0.000765
0.196608	0.001245
0.199885	0.001050
0.203162	-0.000236
0.206438	0.002185
0.209715	-0.002443
0.216269	-0.003522
0.222822	-0.000906
0.229376	-0.002704
0.235930	-0.002114
0.242483	0.001202
0.249037	-0.002405
0.255590	-0.001446
0.262144	0.002297
0.268698	0.001194
0.275251	0.000712
0.281805	0.001069
0.288358	-0.000530
0.294912	-0.001316
0.301466	0.001922
0.308019	-4.454942E-5
0.314573	-0.001560
0.321126	0.001203
0.327680	-0.001443
0.334234	-0.002164
0.340787	0.000866
0.347341	0.001316
0.353894	-0.002203
0.360448	-0.000215
0.367002	-0.000862
0.373555	0.003150
0.380109	-0.003600
0.386662	-0.001737
0.393216	0.001737
0.399770	-0.000726
0.406323	0.003208
0.412877	-0.001547
0.419430	-0.001777
0.432538	0.000240
0.445645	0.000925
0.458752	-0.000791
0.471859	0.003187
0.484966	1.921602E-5
0.498074	-0.000629
0.511181	0.001353
0.524288	-0.001795
0.537395	-3.857168E-5
0.550502	0.000587
0.563610	-0.000625
0.576717	0.000894
0.589824	-0.003022
0.602931	0.001076
0.616038	0.000112
0.629146	-0.000639
0.642253	-0.000323
0.655360	-0.001577
0.668467	0.001155
0.681574	0.000539
0.694682	-0.000949
0.707789	0.000639
0.720896	-8.295250E-5
0.734003	-0.001487
0.747110	-7.545949E-5
0.760218	-0.001773
0.773325	-6.428738E-5
0.786432	-0.000522
0.799539	-7.576501E-5
0.812646	-0.000925
0.825754	0.001106
0.838861	-0.002434
0.865075	-0.000278
0.891290	2.256967E-7
0.917504	3.030108E-5
0.943718	-0.000694
0.969933	0.000236
0.996147	-0.000186
1.022362	-0.000254
1.048576	-0.000186
1.074790	-0.000691
1.101005	4.832867E-5
1.127219	0.000869
1.153434	0.000132
1.179648	-0.002144
1.205862	4.862420E-5
1.232077	-0.000563
1.258291	-0.000436
1.284506	0.000251
1.310720	-0.000189
1.336934	-0.000242
1.363149	0.000789
1.389363	0.001253
1.415578	0.002032
1.441792	0.001507
1.468006	-0.000412
1.494221	0.001119
1.520435	-0.000247
1.546650	0.000539
1.572864	-0.001081
1.599078	0.000235
1.625293	0.000640
1.651507	-0.000957
1.677722	-0.000469
1.730150	-0.000931
1.782579	-0.000696
1.835008	0.000141
1.887437	-0.000282
1.939866	0.000442
1.992294	-0.000216
2.044723	-0.000248
2.097152	0.000788
2.149581	0.000539
2.202010	3.045722E-6
2.254438	-3.407683E-5
2.306867	-0.000594
2.359296	0.000516
2.411725	0.000141
2.464154	-0.000586
2.516582	-4.255837E-5
2.569011	0.001013
2.621440	-0.000128
2.673869	0.000666
2.726298	-0.000881
2.778726	0.000179
2.831155	-0.000359
2.883584	0.000547
2.936013	0.000913
2.988442	-0.000312
3.040870	-0.000708
3.093299	0.000132
3.145728	-0.001155
3.198157	-0.000716
3.250586	-0.000241
3.303015	-9.929727E-5
3.355443	6.642056E-5
3.460301	-0.000779
3.565158	0.000295
3.670016	0.000641
3.774873	0.000333
3.879731	-0.000777
3.984589	0.000655
4.089447	-0.000217
4.194304	0.000154
4.299161	0.000784
4.404019	0.000287
4.508877	0.000103
4.613734	-0.000693
4.718592	-0.000174
4.823450	-4.253260E-5
4.928307	-0.000754
5.033165	0.000787
5.138022	-0.000140
5.242880	0.000114
5.347738	-0.000653
5.452595	0.000355
5.557453	-0.000358
5.662311	-0.000247
5.767168	9.888894E-5
5.872025	4.754902E-5
5.976883	0.000138
6.081741	-0.000582
6.186598	-0.000171
6.291456	0.000534
6.396314	0.001178
6.501171	0.001244
6.606029	0.000788
6.710886	-0.000286
6.920601	0.000192
7.130317	-0.000762
7.340032	-0.000339
7.549747	-0.000145
7.759462	0.000639
7.969178	0.000655
8.178893	0.000277
8.388608	-0.000185
8.598323	-0.000275
8.808039	0.000904
9.017754	5.811046E-5
9.227468	-6.330120E-5
9.437184	-2.062611E-5
9.646899	-0.000271
9.856614	-0.000957
10.066330	-0.000428
10.276045	0.001452
10.485760	-0.000433
10.695476	0.000321
10.905190	0.000496
11.114905	-0.000682
11.324621	-0.000526
11.534336	-0.000639
11.744051	0.000872
11.953767	-0.000709
12.163482	-0.000383
12.373197	0.000909
12.582912	-0.000131
12.792627	0.000382
13.002342	0.000686
13.212058	0.000209
13.421773	-1.585665E-5
13.841203	0.000167
14.260633	0.000161
14.680064	0.000427
15.099494	-0.000219
15.518925	-0.001132
15.938355	0.000683
16.357786	-0.000324
16.777216	0.001264
17.196646	0.000570
17.616077	-0.000807
18.035507	0.001218
18.454937	-0.001226
18.874369	0.000000
19.293798	NaN
19.713228	NaN
20.132660	NaN
20.552090	NaN
20.971519	NaN
21.390951	NaN
21.810381	NaN
22.229811	NaN
22.649242	NaN
23.068672	NaN
23.488102	NaN
23.907534	NaN
24.326963	NaN
24.746393	NaN
25.165825	NaN
25.585255	NaN
26.004684	NaN
26.424116	NaN
26.843546	NaN
27.682405	NaN
28.521267	NaN
29.360128	NaN
30.198988	NaN
31.037849	NaN
31.876711	NaN
32.715572	NaN
33.554432	NaN
34.393291	NaN
35.232155	NaN
36.071014	NaN
36.909874	NaN
37.748737	NaN
38.587597	NaN
39.426456	NaN
40.265320	NaN
41.104179	NaN
41.943039	NaN
42.781902	NaN
43.620762	NaN
44.459621	NaN
45.298485	NaN
46.137344	NaN
46.976204	NaN
47.815067	NaN
48.653927	NaN
49.492786	NaN
50.331650	NaN
51.170509	NaN
52.009369	NaN
52.848232	NaN
53.687092	NaN
55.364811	NaN
57.042534	NaN
58.720257	NaN
60.397976	NaN
62.075699	NaN
63.753422	NaN
65.431145	NaN
67.108864	NaN
68.786583	NaN
70.464310	NaN
72.142029	NaN
73.819748	NaN
75.497475	NaN
77.175194	NaN
78.852913	NaN
80.530640	NaN
82.208359	NaN
83.886078	NaN
85.563805	NaN
87.241524	NaN
88.919243	NaN
90.596970	NaN
92.274689	NaN
93.952408	NaN
95.630135	NaN
97.307854	NaN
98.985573	NaN
100.663300	NaN
102.341019	NaN
104.018738	NaN
105.696465	NaN
107.374184	NaN
110.729622	NaN
114.085068	NaN
117.440514	NaN
120.795952	NaN
124.151398	NaN
127.506844	NaN
130.862289	NaN
134.217728	NaN
137.573166	NaN
140.928619	NaN
144.284058	NaN
147.639496	NaN
150.994949	NaN
154.350388	NaN
157.705826	NaN
161.061279	NaN
164.416718	NaN
167.772156	NaN
171.127609	NaN
174.483047	NaN
177.838486	NaN
181.193939	NaN
184.549377	NaN
187.904816	NaN
191.260269	NaN
194.615707	NaN
197.971146	NaN
201.326599	NaN
204.682037	NaN
208.037476	NaN
211.392929	NaN
214.748367	NaN
221.459244	NaN
228.170135	NaN
234.881027	NaN
241.591904	NaN
248.302795	NaN
255.013687	NaN
261.724579	NaN
268.435455	NaN
275.146332	NaN
281.857239	NaN
288.568115	NaN
295.278992	NaN
301.989899	NaN
308.700775	NaN
315.411652	NaN
322.122559	NaN
328.833435	NaN
335.544312	NaN
342.255219	NaN
348.966095	NaN
355.676971	NaN
362.387878	NaN
369.098755	NaN
375.809631	NaN
382.520538	NaN
389.231415	NaN
395.942291	NaN
402.653198	NaN
409.364075	NaN
416.074951	NaN
422.785858	NaN
429.496735	NaN
442.918488	NaN
456.340271	NaN
469.762054	NaN
483.183807	NaN
496.605591	NaN
510.027374	NaN
523.449158	NaN
536.870911	NaN
550.292664	NaN
563.714478	NaN
577.136230	NaN
590.557983	NaN
603.979797	NaN
617.401550	NaN
630.823303	NaN
644.245117	NaN
657.666870	NaN
671.088623	NaN
684.510437	NaN
697.932190	NaN
711.353943	NaN
724.775757	NaN
738.197510	NaN
751.619263	NaN
765.041077	NaN
778.462830	NaN
791.884583	NaN
805.306396	NaN
818.728149	NaN
832.149902	NaN
845.571716	NaN
858.993469	NaN
885.836975	NaN
912.680542	NaN
939.524109	NaN
966.367615	NaN
993.211182	NaN
1020.054749	NaN
1046.898315	NaN
1073.741821	NaN
1100.585327	NaN
1127.428955	NaN
1154.272461	NaN
1181.115967	NaN
1207.959595	NaN
1234.803101	NaN
1261.646606	NaN
1288.490234	NaN
1315.333740	NaN
1342.177246	NaN
1369.020874	NaN
1395.864380	NaN
1422.707886	NaN
1449.551514	NaN
1476.395020	NaN
1503.238525	NaN
1530.082153	NaN
1556.925659	NaN
1583.769165	NaN
1610.612793	NaN
1637.456299	NaN
1664.299805	NaN
1691.143433	NaN
1717.986938	NaN
1771.673950	NaN
1825.361084	NaN
1879.048218	NaN
1932.735229	NaN
1986.422363	NaN
2040.109497	NaN
2093.796631	NaN
2147.483643	NaN
2201.170654	NaN
2254.857910	NaN
2308.544922	NaN
2362.231934	NaN
2415.919189	NaN
2469.606201	NaN
2523.293213	NaN
2576.980469	NaN
2630.667480	NaN
2684.354492	NaN
2738.041748	NaN
2791.728760	NaN
2845.415771	NaN
2899.103027	NaN
2952.790039	NaN
3006.477051	NaN
3060.164307	NaN
3113.851318	NaN
3167.538330	NaN
3221.225586	NaN
3274.912598	NaN
3328.599609	NaN
3382.286865	NaN
3435.973877	NaN
0.000000	NaN
0.000000	NaN
0.000000	NaN
0.000000	NaN
0.000000	NaN
0.000000	NaN
0.000000	NaN
0.000000	NaN
0.000000	NaN
0.000000	NaN
0.000000	NaN
0.000000	NaN
0.000000	NaN
0.000000	NaN
0.000000	NaN
0.000000	NaN
0.000000	NaN
0.000000	NaN
0.000000	NaN
0.000000	NaN
0.000000	NaN
0.000000	NaN
0.000000	NaN
0.000000	NaN
0.000000	NaN
0.000000	NaN
0.000000	NaN
0.000000	NaN
0.000000	NaN
0.000000	NaN
0.000000	NaN
0.000000	NaN

Count Rate History (KHz)  CR CHA / CR CHB
0.000000	231.943130	240.821838
0.104858	263.605118	275.955200
0.209715	244.894028	259.323120
0.314573	256.547928	263.195038
0.419430	275.945663	283.546448
0.524288	257.196426	276.746750
0.629146	276.203156	281.686783
0.734003	256.757736	269.784927
0.838861	234.603882	250.425339
0.943718	232.524872	244.026184
1.048576	270.700455	290.231705
1.153434	269.794464	283.794403
1.258291	269.832611	280.818939
1.363149	234.737396	241.909027
1.468006	242.805481	253.887177
1.572864	263.433456	274.248123
1.677722	239.467621	252.695084
1.782579	221.948624	234.460831
1.887437	245.037079	254.039764
1.992294	255.117416	262.889862
2.097152	233.030319	241.594315
2.202010	248.632431	262.289047
2.306867	223.388672	236.396790
2.411725	209.379196	215.454102
2.516582	289.821625	310.106277
2.621440	281.991959	288.324356
2.726298	278.997421	297.975540
2.831155	225.982666	237.388611
2.936013	268.630981	282.974243
3.040870	238.323212	252.580643
3.145728	245.113373	254.611969
3.250586	287.799835	296.449661
3.355443	248.565674	269.412994
3.460301	249.500275	259.790421
3.565158	268.306732	278.291702
3.670016	270.166397	284.719467
3.774874	216.865540	232.410431
3.879731	247.097015	253.019333
3.984589	252.485275	262.575150
4.089446	289.678574	303.449631
4.194304	253.782272	264.539719
4.299162	226.631165	236.196518
4.404019	235.166550	252.685547
4.508877	266.466141	275.068283
4.613734	268.058777	288.448334
4.718592	255.727768	268.354416
4.823450	248.231888	258.483887
4.928307	233.316422	245.323181
5.033165	229.816437	237.655640
5.138022	244.426727	263.128281
5.242880	262.289047	274.868011
5.347738	224.514008	231.208801
5.452595	240.688324	251.617432
5.557453	238.380432	252.885818
5.662310	250.320435	261.745453
5.767168	245.876312	257.759094
5.872026	251.789093	263.614655
5.976883	250.301361	264.005661
6.081741	235.004425	242.586136
6.186598	228.586197	238.485336
6.291456	276.412964	295.171738
6.396314	244.979858	252.084732
6.501171	247.049332	265.541077
6.606029	243.053436	257.139206
6.710886	275.297165	292.301178
6.815744	256.519318	268.611908
6.920602	301.580429	314.111710
7.025459	286.760330	301.446915
7.130317	234.909058	246.391296
7.235174	247.459412	263.481140
7.340032	231.180191	237.941742
7.444890	219.097137	229.167938
7.549747	234.193802	241.050720
7.654605	277.318954	291.061401
7.759462	235.738754	248.918533
7.864320	244.140625	258.855820
7.969178	251.979828	266.237259
8.074035	260.457993	274.667740
8.178893	286.293030	300.903320
8.283750	242.118835	251.054764
8.388608	271.730423	285.148621
8.493466	249.872208	269.241333
8.598323	265.436172	275.630951
8.703181	206.556320	208.635330
8.808038	243.568420	254.306793
8.912896	238.151550	249.662399
9.017754	255.327225	280.570984
9.122611	269.937515	280.637741
9.227469	245.008469	251.321793
9.332326	241.041183	265.617371
9.437184	274.219513	283.050537
9.542042	260.868073	260.715485
9.646899	274.553299	285.224915
9.751757	245.742798	256.938934
9.856614	244.131088	261.917114
9.961472	253.114700	262.947083
10.066330	220.508575	232.305527
10.171187	207.567215	216.503143
10.276045	254.926682	267.381668
10.380902	218.925476	234.775543
10.485760	252.275467	264.368057
10.590618	250.463486	263.319016
10.695475	254.173279	266.504288
10.800333	223.522186	233.230591
10.905190	272.417068	283.622742
11.010048	245.952606	262.308121
11.114906	239.114761	246.820450
11.219763	252.656937	267.639160
11.324621	251.836777	258.750916
11.429478	267.705917	284.299850
11.534336	258.512497	270.128250
11.639194	242.929459	253.772736
11.744051	254.383087	263.128281
11.848909	220.870972	232.210159
11.953766	235.986710	250.520706
12.058624	224.618912	231.609344
12.163482	224.618912	230.283737
12.268339	296.106339	307.054520
12.373197	239.648819	243.148804
12.478054	251.674652	266.456604
12.582912	199.871063	208.072662
12.687770	246.343613	267.887115
12.792627	264.940262	272.903442
12.897485	256.662369	265.951157
13.002342	257.883072	276.870728
13.107200	218.925476	221.223831
13.212058	265.998840	293.407440
13.316915	251.846313	262.479782
13.421773	265.522003	272.855759
13.526630	261.039734	281.505585
13.631488	272.502899	283.241272
13.736346	229.310989	233.087540
13.841203	254.707336	259.332657
13.946061	239.200592	251.083374
14.050918	224.590302	241.994858
14.155776	231.943130	240.621567
14.260634	264.320374	282.602310
14.365491	219.736099	234.718323
14.470349	256.042480	269.908905
14.575206	258.722305	272.159576
14.680064	257.606506	264.997482
14.784922	233.297348	244.235992
14.889779	267.286301	274.133682
14.994637	256.433487	275.278091
15.099494	258.064270	267.248154
15.204352	229.444504	240.964890
15.309210	239.143372	251.235962
15.414067	268.144608	284.891129
15.518925	230.655670	249.633789
15.623782	253.105164	272.035599
15.728640	274.953842	276.498795
15.833498	273.809433	286.788940
15.938355	268.516541	290.021896
16.043213	255.546570	260.572433
16.148070	253.458023	264.778137
16.252928	242.319107	255.489349
16.357786	225.048065	233.068466
16.462643	257.768631	271.348953
16.567501	257.873535	270.051956
16.672358	230.941772	237.283707
16.777216	236.816406	246.887207
16.882074	211.009979	220.260620
16.986931	278.768539	298.023224
17.091789	256.175995	260.763168
17.196646	244.140625	262.527466
17.301504	285.987854	300.397873
17.406362	229.673386	239.048004
17.511219	261.611938	279.588699
17.616077	247.135162	259.304047
17.720934	268.068314	270.900726
17.825792	249.280930	259.933472
17.930650	249.385834	259.113312
18.035507	213.394165	229.673386
18.140365	237.207413	242.404938
18.245222	229.797363	239.534378
18.350080	211.248398	224.895477
18.454938	246.467590	274.190903
18.559795	242.881775	241.317749
18.664653	264.768600	276.880264
18.769510	241.670609	253.973007
18.874368	211.229324	219.011307
18.979226	233.020782	235.853195
19.084083	241.060257	261.068344
19.188941	238.370895	246.238708
19.293798	243.844986	260.496140
19.398656	273.952484	284.328461
19.503514	236.797333	249.805450
19.608371	243.139267	249.948502
19.713229	249.834061	259.695053
