1/9/2026	1:07 PM
Pseudo Cross Correlation
Scattering angle:	90.0
Duration (s):	20
Wavelength (nm):	632.8
Refractive index:	1.330
Viscosity (mPas):	0.712
Temperature (K):	308.7
Laser intensity (mW):	2.653439
Average Count rate  A (kHz):	317.2
Average Count rate  B (kHz):	334.6
Intercept:	0.9324
Cumulant 1st	127.93
Cumulant 2nd	129.47	15.85
Cumulant 3rd	126.69	29.42

Lag time (s)         g2-1
1.250000E-8	0.941133
2.500000E-8	0.929784
3.750000E-8	0.933945
5.000000E-8	0.937880
6.250000E-8	0.936404
7.500000E-8	0.921613
8.750000E-8	0.927666
1.000000E-7	0.927439
1.125000E-7	0.915333
1.250000E-7	0.940225
1.375000E-7	0.934437
1.500000E-7	0.935232
1.625000E-7	0.925547
1.750000E-7	0.923732
1.875000E-7	0.917225
2.000000E-7	0.946126
2.125000E-7	0.951649
2.250000E-7	0.934286
2.375000E-7	0.923467
2.500000E-7	0.945899
2.625000E-7	0.920403
2.750000E-7	0.933264
2.875000E-7	0.944689
3.000000E-7	0.937728
3.125000E-7	0.947223
3.250000E-7	0.930352
3.375000E-7	0.935496
3.500000E-7	0.939393
3.625000E-7	0.929898
3.750000E-7	0.945824
3.875000E-7	0.910113
4.000000E-7	0.936215
4.125000E-7	0.946694
4.250000E-7	0.924753
4.375000E-7	0.941171
4.500000E-7	0.919873
4.625000E-7	0.937501
4.750000E-7	0.927893
4.875000E-7	0.928914
5.000000E-7	0.936631
5.125000E-7	0.916241
5.250000E-7	0.933038
5.375000E-7	0.928498
5.500000E-7	0.939771
5.625000E-7	0.925472
5.750000E-7	0.929028
5.875000E-7	0.933643
6.000000E-7	0.931449
6.125000E-7	0.929519
6.250000E-7	0.925434
6.375000E-7	0.930087
6.500000E-7	0.935080
6.625000E-7	0.932811
6.750000E-7	0.933983
6.875000E-7	0.930768
7.000000E-7	0.925018
7.125000E-7	0.924185
7.250000E-7	0.936896
7.375000E-7	0.935648
7.500000E-7	0.933794
7.625000E-7	0.934815
7.750000E-7	0.915674
7.875000E-7	0.929822
8.000000E-7	0.920856
8.250000E-7	0.930200
8.500000E-7	0.935307
8.750000E-7	0.914842
9.000000E-7	0.939242
9.250000E-7	0.921556
9.500000E-7	0.926077
9.750000E-7	0.934702
1.000000E-6	0.934362
1.025000E-6	0.918587
1.050000E-6	0.941360
1.075000E-6	0.925888
1.100000E-6	0.927269
1.125000E-6	0.931373
1.150000E-6	0.922634
1.175000E-6	0.928176
1.200000E-6	0.924053
1.225000E-6	0.925566
1.250000E-6	0.926890
1.275000E-6	0.927004
1.300000E-6	0.925945
1.325000E-6	0.940376
1.350000E-6	0.929368
1.375000E-6	0.941795
1.400000E-6	0.935704
1.425000E-6	0.932565
1.450000E-6	0.934872
1.475000E-6	0.931978
1.500000E-6	0.934078
1.525000E-6	0.929746
1.550000E-6	0.920062
1.575000E-6	0.931846
1.600000E-6	0.927382
1.650000E-6	0.921641
1.700000E-6	0.934248
1.750000E-6	0.933274
1.800000E-6	0.931269
1.850000E-6	0.926682
1.900000E-6	0.926266
1.950000E-6	0.925661
2.000000E-6	0.924157
2.050000E-6	0.927070
2.100000E-6	0.927458
2.150000E-6	0.922332
2.200000E-6	0.936839
2.250000E-6	0.926758
2.300000E-6	0.931411
2.350000E-6	0.926294
2.400000E-6	0.922512
2.450000E-6	0.928205
2.500000E-6	0.930806
2.550000E-6	0.926890
2.600000E-6	0.928687
2.650000E-6	0.927221
2.700000E-6	0.928403
2.750000E-6	0.919343
2.800000E-6	0.924904
2.850000E-6	0.929964
2.900000E-6	0.936092
2.950000E-6	0.929179
3.000000E-6	0.930598
3.050000E-6	0.934248
3.100000E-6	0.927335
3.150000E-6	0.927533
3.200000E-6	0.935194
3.300000E-6	0.928318
3.400000E-6	0.922937
3.500000E-6	0.921216
3.600000E-6	0.927751
3.700000E-6	0.925439
3.800000E-6	0.923079
3.900000E-6	0.926649
4.000000E-6	0.926559
4.100000E-6	0.924720
4.200000E-6	0.925859
4.300000E-6	0.922166
4.400000E-6	0.928734
4.500000E-6	0.923051
4.600000E-6	0.924587
4.700000E-6	0.927363
4.800000E-6	0.920601
4.900000E-6	0.923486
5.000000E-6	0.930196
5.100000E-6	0.929973
5.200000E-6	0.924966
5.300000E-6	0.924720
5.400000E-6	0.927727
5.500000E-6	0.924758
5.600000E-6	0.925992
5.700000E-6	0.925845
5.800000E-6	0.921031
5.900000E-6	0.924762
6.000000E-6	0.923452
6.100000E-6	0.928526
6.200000E-6	0.920956
6.300000E-6	0.920020
6.400000E-6	0.924871
6.600000E-6	0.924521
6.800000E-6	0.919880
7.000000E-6	0.924850
7.200000E-6	0.922242
7.400000E-6	0.920894
7.600000E-6	0.918331
7.800000E-6	0.922819
8.000000E-6	0.922502
8.200000E-6	0.919357
8.400000E-6	0.922805
8.600000E-6	0.919178
8.800000E-6	0.924911
9.000000E-6	0.917903
9.200000E-6	0.916804
9.400000E-6	0.921540
9.600000E-6	0.917362
9.800000E-6	0.917388
1.000000E-5	0.917951
1.020000E-5	0.919355
1.040000E-5	0.919662
1.060000E-5	0.916769
1.080000E-5	0.912224
1.100000E-5	0.913111
1.120000E-5	0.916010
1.140000E-5	0.916622
1.160000E-5	0.914858
1.180000E-5	0.914305
1.200000E-5	0.914319
1.220000E-5	0.917135
1.240000E-5	0.913541
1.260000E-5	0.912378
1.280000E-5	0.912007
1.320000E-5	0.910302
1.360000E-5	0.913263
1.400000E-5	0.909297
1.440000E-5	0.910034
1.480000E-5	0.908344
1.520000E-5	0.907477
1.560000E-5	0.905656
1.600000E-5	0.906696
1.640000E-5	0.908145
1.680000E-5	0.906317
1.720000E-5	0.906864
1.760000E-5	0.904609
1.800000E-5	0.905891
1.840000E-5	0.903991
1.880000E-5	0.905446
1.920000E-5	0.902220
1.960000E-5	0.901035
2.000000E-5	0.901006
2.040000E-5	0.901835
2.080000E-5	0.900234
2.120000E-5	0.898797
2.160000E-5	0.899327
2.200000E-5	0.900729
2.240000E-5	0.900716
2.280000E-5	0.898038
2.320000E-5	0.894249
2.360000E-5	0.896358
2.400000E-5	0.892891
2.440000E-5	0.893363
2.480000E-5	0.894540
2.520000E-5	0.894520
2.560000E-5	0.892844
2.640000E-5	0.890282
2.720000E-5	0.892231
2.800000E-5	0.889812
2.880000E-5	0.886094
2.960000E-5	0.887803
3.040000E-5	0.885483
3.120000E-5	0.884782
3.200000E-5	0.882384
3.280000E-5	0.881949
3.360000E-5	0.881199
3.440000E-5	0.879575
3.520000E-5	0.878710
3.600000E-5	0.875646
3.680000E-5	0.874892
3.760000E-5	0.877019
3.840000E-5	0.873378
3.920000E-5	0.872546
4.000000E-5	0.872506
4.080000E-5	0.870886
4.160000E-5	0.869030
4.240000E-5	0.866522
4.320000E-5	0.867213
4.400000E-5	0.865810
4.480000E-5	0.864396
4.560000E-5	0.863585
4.640000E-5	0.861937
4.720000E-5	0.861355
4.800000E-5	0.859019
4.880000E-5	0.859817
4.960000E-5	0.857812
5.040000E-5	0.854917
5.120000E-5	0.856038
5.280000E-5	0.852383
5.440000E-5	0.849537
5.600000E-5	0.848538
5.760000E-5	0.846002
5.920000E-5	0.841751
6.080000E-5	0.840202
6.240000E-5	0.837691
6.400000E-5	0.836127
6.560000E-5	0.835353
6.720000E-5	0.832712
6.880000E-5	0.830065
7.040000E-5	0.827085
7.200000E-5	0.824649
7.360000E-5	0.822469
7.520000E-5	0.821292
7.680000E-5	0.817752
7.840000E-5	0.815775
8.000000E-5	0.813910
8.160000E-5	0.811879
8.320000E-5	0.808196
8.480000E-5	0.807208
8.640000E-5	0.805463
8.800000E-5	0.803194
8.960000E-5	0.798948
9.120000E-5	0.798689
9.280000E-5	0.795923
9.440000E-5	0.793398
9.600000E-5	0.791921
9.760000E-5	0.788627
9.920000E-5	0.787934
0.000101	0.785199
0.000102	0.783024
0.000106	0.779191
0.000109	0.774561
0.000112	0.770009
0.000115	0.766217
0.000118	0.761672
0.000122	0.756836
0.000125	0.752678
0.000128	0.748257
0.000131	0.743615
0.000134	0.740209
0.000138	0.735875
0.000141	0.731211
0.000144	0.728350
0.000147	0.723439
0.000150	0.719686
0.000154	0.714814
0.000157	0.711979
0.000160	0.707637
0.000163	0.703441
0.000166	0.700112
0.000170	0.695499
0.000173	0.691420
0.000176	0.687499
0.000179	0.685341
0.000182	0.680805
0.000186	0.677145
0.000189	0.673043
0.000192	0.668627
0.000195	0.665484
0.000198	0.662150
0.000202	0.658132
0.000205	0.654652
0.000211	0.646962
0.000218	0.640089
0.000224	0.632475
0.000230	0.625654
0.000237	0.618438
0.000243	0.611581
0.000250	0.605229
0.000256	0.598308
0.000262	0.591471
0.000269	0.585111
0.000275	0.578019
0.000282	0.572038
0.000288	0.566180
0.000294	0.558590
0.000301	0.553194
0.000307	0.547174
0.000314	0.541029
0.000320	0.534751
0.000326	0.529763
0.000333	0.523850
0.000339	0.517818
0.000346	0.512558
0.000352	0.506889
0.000358	0.501113
0.000365	0.495688
0.000371	0.490975
0.000378	0.485191
0.000384	0.480255
0.000390	0.474970
0.000397	0.469954
0.000403	0.464937
0.000410	0.459181
0.000422	0.449757
0.000435	0.439736
0.000448	0.430797
0.000461	0.421270
0.000474	0.411933
0.000486	0.402711
0.000499	0.393753
0.000512	0.385803
0.000525	0.377060
0.000538	0.369409
0.000550	0.361272
0.000563	0.353069
0.000576	0.345199
0.000589	0.337793
0.000602	0.330554
0.000614	0.323573
0.000627	0.316200
0.000640	0.309417
0.000653	0.302859
0.000666	0.296181
0.000678	0.290145
0.000691	0.283708
0.000704	0.277884
0.000717	0.270935
0.000730	0.265256
0.000742	0.259594
0.000755	0.254271
0.000768	0.248304
0.000781	0.243070
0.000794	0.237615
0.000806	0.232196
0.000819	0.227080
0.000845	0.218106
0.000870	0.208480
0.000896	0.199509
0.000922	0.190740
0.000947	0.182195
0.000973	0.174222
0.000998	0.166367
0.001024	0.159214
0.001050	0.151852
0.001075	0.144802
0.001101	0.138421
0.001126	0.131893
0.001152	0.126139
0.001178	0.120436
0.001203	0.114817
0.001229	0.109202
0.001254	0.104210
0.001280	0.099144
0.001306	0.094593
0.001331	0.090006
0.001357	0.086285
0.001382	0.081956
0.001408	0.078297
0.001434	0.074741
0.001459	0.071734
0.001485	0.068603
0.001510	0.065797
0.001536	0.063054
0.001562	0.060245
0.001587	0.057964
0.001613	0.055613
0.001638	0.053253
0.001690	0.049138
0.001741	0.045331
0.001792	0.042179
0.001843	0.038613
0.001894	0.035149
0.001946	0.033079
0.001997	0.030497
0.002048	0.028380
0.002099	0.026463
0.002150	0.025206
0.002202	0.023938
0.002253	0.023146
0.002304	0.022878
0.002355	0.022169
0.002406	0.021661
0.002458	0.021233
0.002509	0.020756
0.002560	0.019887
0.002611	0.019168
0.002662	0.017958
0.002714	0.017228
0.002765	0.016760
0.002816	0.016238
0.002867	0.015728
0.002918	0.015015
0.002970	0.014492
0.003021	0.014359
0.003072	0.013457
0.003123	0.013066
0.003174	0.012940
0.003226	0.012430
0.003277	0.011544
0.003379	0.010860
0.003482	0.010666
0.003584	0.009079
0.003686	0.007724
0.003789	0.006937
0.003891	0.007243
0.003994	0.007331
0.004096	0.006617
0.004198	0.005245
0.004301	0.004574
0.004403	0.003762
0.004506	0.002675
0.004608	0.002292
0.004710	0.001818
0.004813	0.001590
0.004915	0.000859
0.005018	-0.000155
0.005120	-0.000521
0.005222	-0.000672
0.005325	-0.000972
0.005427	-0.001270
0.005530	-0.000998
0.005632	-0.000791
0.005734	-0.000468
0.005837	0.000675
0.005939	0.001289
0.006042	0.001764
0.006144	0.001809
0.006246	0.002044
0.006349	0.002612
0.006451	0.002412
0.006554	0.002850
0.006758	0.002685
0.006963	0.001403
0.007168	0.000573
0.007373	7.119332E-5
0.007578	0.000410
0.007782	0.002011
0.007987	0.001998
0.008192	0.001842
0.008397	0.002245
0.008602	0.002498
0.008806	0.001822
0.009011	0.002369
0.009216	0.003553
0.009421	0.004110
0.009626	0.003631
0.009830	0.003149
0.010035	0.003912
0.010240	0.003453
0.010445	0.003115
0.010650	0.002630
0.010854	0.001149
0.011059	-0.001271
0.011264	-0.003190
0.011469	-0.004272
0.011674	-0.004734
0.011878	-0.003810
0.012083	-0.003736
0.012288	-0.004195
0.012493	-0.005474
0.012698	-0.006559
0.012902	-0.005737
0.013107	-0.005676
0.013517	-0.005440
0.013926	-0.003787
0.014336	-0.004391
0.014746	-0.003310
0.015155	-0.003792
0.015565	3.907527E-5
0.015974	0.003482
0.016384	0.000124
0.016794	-0.001500
0.017203	-0.001748
0.017613	0.000893
0.018022	0.001964
0.018432	0.005030
0.018842	0.006147
0.019251	0.006085
0.019661	0.006074
0.020070	0.002994
0.020480	-0.002331
0.020890	-0.009044
0.021299	-0.009844
0.021709	-0.006628
0.022118	-0.004665
0.022528	-0.004395
0.022938	-0.003760
0.023347	-0.003923
0.023757	-0.006852
0.024166	-0.009928
0.024576	-0.007070
0.024986	-0.002458
0.025395	0.004342
0.025805	0.005271
0.026214	0.004588
0.027034	0.003098
0.027853	-0.001169
0.028672	-0.004530
0.029491	-0.005431
0.030310	-0.003113
0.031130	0.000639
0.031949	-0.001661
0.032768	-0.000458
0.033587	0.002686
0.034406	0.003659
0.035226	0.005479
0.036045	0.008437
0.036864	0.005108
0.037683	0.003946
0.038502	-0.000383
0.039322	-0.003880
0.040141	-0.001491
0.040960	0.004709
0.041779	0.003487
0.042598	-0.002274
0.043418	-0.004909
0.044237	-0.000266
0.045056	0.001718
0.045875	0.000259
0.046694	-0.000636
0.047514	-0.005537
0.048333	-0.007908
0.049152	-0.007733
0.049971	-0.003477
0.050790	0.002099
0.051610	0.002890
0.052429	-0.002118
0.054067	-0.000507
0.055706	0.002925
0.057344	-0.011487
0.058982	0.000771
0.060621	0.002830
0.062259	-0.001057
0.063898	-9.010645E-5
0.065536	-0.002840
0.067174	-0.007002
0.068813	-0.001630
0.070451	-0.001648
0.072090	0.003996
0.073728	0.008687
0.075366	0.003730
0.077005	-0.001905
0.078643	0.000715
0.080282	-0.002623
0.081920	-0.006772
0.083558	-0.005638
0.085197	7.490836E-5
0.086835	-0.001319
0.088474	-0.003423
0.090112	0.002462
0.091750	0.001085
0.093389	-0.000222
0.095027	0.003073
0.096666	0.007184
0.098304	-0.004148
0.099942	-0.003109
0.101581	0.002323
0.103219	-0.000439
0.104858	0.000212
0.108134	0.002285
0.111411	-0.001021
0.114688	0.000404
0.117965	-0.002589
0.121242	-0.004385
0.124518	0.000115
0.127795	-0.002409
0.131072	-5.856257E-5
0.134349	0.004854
0.137626	0.004618
0.140902	-0.002216
0.144179	-0.002670
0.147456	-0.000809
0.150733	-0.003213
0.154010	0.004352
0.157286	0.006474
0.160563	0.002201
0.163840	0.001883
0.167117	-0.000220
0.170394	-0.004573
0.173670	-0.000649
0.176947	-0.004026
0.180224	-0.003182
0.183501	-0.002967
0.186778	-0.000109
0.190054	0.004064
0.193331	-0.002593
0.196608	0.002218
0.199885	-0.001030
0.203162	0.000354
0.206438	0.003791
0.209715	0.003740
0.216269	0.002181
0.222822	0.000215
0.229376	0.001933
0.235930	-0.002343
0.242483	-0.000858
0.249037	-0.006302
0.255590	-0.003380
0.262144	-0.002502
0.268698	0.003017
0.275251	0.003225
0.281805	0.000618
0.288358	-0.003349
0.294912	0.002379
0.301466	-0.002658
0.308019	-0.006611
0.314573	-0.002311
0.321126	-0.003191
0.327680	-0.004813
0.334234	-5.432211E-5
0.340787	0.004270
0.347341	0.003589
0.353894	-0.000481
0.360448	-0.002580
0.367002	0.001326
0.373555	0.002631
0.380109	-2.956209E-5
0.386662	0.003160
0.393216	0.004090
0.399770	-0.002658
0.406323	-0.002403
0.412877	-0.002378
0.419430	0.000870
0.432538	0.000898
0.445645	0.001518
0.458752	-0.000122
0.471859	0.003025
0.484966	0.002167
0.498074	-0.003815
0.511181	-0.000705
0.524288	0.000989
0.537395	-0.001076
0.550502	0.000751
0.563610	0.001386
0.576717	0.001120
0.589824	-0.002916
0.602931	-0.001545
0.616038	-0.000612
0.629146	0.003299
0.642253	0.001397
0.655360	-0.002286
0.668467	0.003498
0.681574	0.001289
0.694682	0.001288
0.707789	-0.001818
0.720896	-0.001619
0.734003	-0.000847
0.747110	0.003182
0.760218	0.002457
0.773325	0.000804
0.786432	-0.002729
0.799539	-2.491274E-5
0.812646	-0.000431
0.825754	-0.001007
0.838861	-2.735614E-6
0.865075	-0.003963
0.891290	-0.001386
0.917504	0.001348
0.943718	0.001356
0.969933	-0.000126
0.996147	0.001266
1.022362	0.001386
1.048576	-0.000643
1.074790	5.305506E-5
1.101005	0.002447
1.127219	0.001044
1.153434	-0.000246
1.179648	0.000502
1.205862	-0.001777
1.232077	-0.000314
1.258291	-0.001844
1.284506	0.000676
1.310720	-0.001775
1.336934	-0.001319
1.363149	-0.000147
1.389363	-0.001152
1.415578	-0.002029
1.441792	0.002421
1.468006	0.002914
1.494221	-0.001374
1.520435	0.000886
1.546650	-0.002397
1.572864	0.000640
1.599078	0.000106
1.625293	-0.001071
1.651507	-0.000173
1.677722	-0.001644
1.730150	0.001293
1.782579	-0.000294
1.835008	-0.000401
1.887437	-0.000946
1.939866	0.000309
1.992294	-0.001314
2.044723	0.000192
2.097152	-0.000536
2.149581	-0.000410
2.202010	0.001524
2.254438	0.000192
2.306867	-0.000308
2.359296	-0.001849
2.411725	0.000440
2.464154	0.000757
2.516582	0.001248
2.569011	-8.507455E-6
2.621440	-0.000749
2.673869	-2.398719E-5
2.726298	0.000290
2.778726	0.002116
2.831155	-0.001766
2.883584	0.001507
2.936013	0.001304
2.988442	0.001317
3.040870	-0.002535
3.093299	-0.001237
3.145728	0.001907
3.198157	-0.001906
3.250586	-0.000729
3.303015	0.001288
3.355443	-0.000509
3.460301	-0.000143
3.565158	0.001081
3.670016	-0.000147
3.774873	-5.087004E-5
3.879731	-0.000838
3.984589	0.000167
4.089447	0.000414
4.194304	0.000256
4.299161	-0.001866
4.404019	-0.000760
4.508877	0.000286
4.613734	-0.000378
4.718592	0.000847
4.823450	0.000990
4.928307	-0.000937
5.033165	0.000526
5.138022	0.000851
5.242880	0.001030
5.347738	-0.000595
5.452595	-0.001214
5.557453	0.001178
5.662311	0.000374
5.767168	0.000219
5.872025	-0.000426
5.976883	0.000929
6.081741	0.000642
6.186598	0.000574
6.291456	0.000403
6.396314	-0.000359
6.501171	0.000557
6.606029	0.000109
6.710886	0.000952
6.920601	-0.001036
7.130317	0.000365
7.340032	1.678944E-5
7.549747	0.000249
7.759462	0.000559
7.969178	-0.000559
8.178893	-0.000408
8.388608	0.000592
8.598323	0.000161
8.808039	-0.000716
9.017754	-0.000242
9.227468	7.888062E-5
9.437184	0.000389
9.646899	0.000409
9.856614	-0.000296
10.066330	0.000327
10.276045	-0.001063
10.485760	-0.000129
10.695476	-7.240300E-5
10.905190	0.000366
11.114905	-0.000574
11.324621	-0.000233
11.534336	0.000403
11.744051	-0.001506
11.953767	0.001074
12.163482	-0.000231
12.373197	0.001182
12.582912	0.000400
12.792627	-0.000185
13.002342	0.000470
13.212058	-9.639409E-5
13.421773	0.001044
13.841203	-0.000202
14.260633	-0.000671
14.680064	0.000595
15.099494	-0.000229
15.518925	0.000195
15.938355	-0.000527
16.357786	-0.000791
16.777216	-0.000563
17.196646	0.000874
17.616077	0.001050
18.035507	-0.000113
18.454937	0.000815
18.874369	-0.001364
19.293798	0.000000
19.713228	NaN
20.132660	NaN
20.552090	NaN
20.971519	NaN
21.390951	NaN
21.810381	NaN
22.229811	NaN
22.649242	NaN
23.068672	NaN
23.488102	NaN
23.907534	NaN
24.326963	NaN
24.746393	NaN
25.165825	NaN
25.585255	NaN
26.004684	NaN
26.424116	NaN
26.843546	NaN
27.682405	NaN
28.521267	NaN
29.360128	NaN
30.198988	NaN
31.037849	NaN
31.876711	NaN
32.715572	NaN
33.554432	NaN
34.393291	NaN
35.232155	NaN
36.071014	NaN
36.909874	NaN
37.748737	NaN
38.587597	NaN
39.426456	NaN
40.265320	NaN
41.104179	NaN
41.943039	NaN
42.781902	NaN
43.620762	NaN
44.459621	NaN
45.298485	NaN
46.137344	NaN
46.976204	NaN
47.815067	NaN
48.653927	NaN
49.492786	NaN
50.331650	NaN
51.170509	NaN
52.009369	NaN
52.848232	NaN
53.687092	NaN
55.364811	NaN
57.042534	NaN
58.720257	NaN
60.397976	NaN
62.075699	NaN
63.753422	NaN
65.431145	NaN
67.108864	NaN
68.786583	NaN
70.464310	NaN
72.142029	NaN
73.819748	NaN
75.497475	NaN
77.175194	NaN
78.852913	NaN
80.530640	NaN
82.208359	NaN
83.886078	NaN
85.563805	NaN
87.241524	NaN
88.919243	NaN
90.596970	NaN
92.274689	NaN
93.952408	NaN
95.630135	NaN
97.307854	NaN
98.985573	NaN
100.663300	NaN
102.341019	NaN
104.018738	NaN
105.696465	NaN
107.374184	NaN
110.729622	NaN
114.085068	NaN
117.440514	NaN
120.795952	NaN
124.151398	NaN
127.506844	NaN
130.862289	NaN
134.217728	NaN
137.573166	NaN
140.928619	NaN
144.284058	NaN
147.639496	NaN
150.994949	NaN
154.350388	NaN
157.705826	NaN
161.061279	NaN
164.416718	NaN
167.772156	NaN
171.127609	NaN
174.483047	NaN
177.838486	NaN
181.193939	NaN
184.549377	NaN
187.904816	NaN
191.260269	NaN
194.615707	NaN
197.971146	NaN
201.326599	NaN
204.682037	NaN
208.037476	NaN
211.392929	NaN
214.748367	NaN
221.459244	NaN
228.170135	NaN
234.881027	NaN
241.591904	NaN
248.302795	NaN
255.013687	NaN
261.724579	NaN
268.435455	NaN
275.146332	NaN
281.857239	NaN
288.568115	NaN
295.278992	NaN
301.989899	NaN
308.700775	NaN
315.411652	NaN
322.122559	NaN
328.833435	NaN
335.544312	NaN
342.255219	NaN
348.966095	NaN
355.676971	NaN
362.387878	NaN
369.098755	NaN
375.809631	NaN
382.520538	NaN
389.231415	NaN
395.942291	NaN
402.653198	NaN
409.364075	NaN
416.074951	NaN
422.785858	NaN
429.496735	NaN
442.918488	NaN
456.340271	NaN
469.762054	NaN
483.183807	NaN
496.605591	NaN
510.027374	NaN
523.449158	NaN
536.870911	NaN
550.292664	NaN
563.714478	NaN
577.136230	NaN
590.557983	NaN
603.979797	NaN
617.401550	NaN
630.823303	NaN
644.245117	NaN
657.666870	NaN
671.088623	NaN
684.510437	NaN
697.932190	NaN
711.353943	NaN
724.775757	NaN
738.197510	NaN
751.619263	NaN
765.041077	NaN
778.462830	NaN
791.884583	NaN
805.306396	NaN
818.728149	NaN
832.149902	NaN
845.571716	NaN
858.993469	NaN
885.836975	NaN
912.680542	NaN
939.524109	NaN
966.367615	NaN
993.211182	NaN
1020.054749	NaN
1046.898315	NaN
1073.741821	NaN
1100.585327	NaN
1127.428955	NaN
1154.272461	NaN
1181.115967	NaN
1207.959595	NaN
1234.803101	NaN
1261.646606	NaN
1288.490234	NaN
1315.333740	NaN
1342.177246	NaN
1369.020874	NaN
1395.864380	NaN
1422.707886	NaN
1449.551514	NaN
1476.395020	NaN
1503.238525	NaN
1530.082153	NaN
1556.925659	NaN
1583.769165	NaN
1610.612793	NaN
1637.456299	NaN
1664.299805	NaN
1691.143433	NaN
1717.986938	NaN
1771.673950	NaN
1825.361084	NaN
1879.048218	NaN
1932.735229	NaN
1986.422363	NaN
2040.109497	NaN
2093.796631	NaN
2147.483643	NaN
2201.170654	NaN
2254.857910	NaN
2308.544922	NaN
2362.231934	NaN
2415.919189	NaN
2469.606201	NaN
2523.293213	NaN
2576.980469	NaN
2630.667480	NaN
2684.354492	NaN
2738.041748	NaN
2791.728760	NaN
2845.415771	NaN
2899.103027	NaN
2952.790039	NaN
3006.477051	NaN
3060.164307	NaN
3113.851318	NaN
3167.538330	NaN
3221.225586	NaN
3274.912598	NaN
3328.599609	NaN
3382.286865	NaN
3435.973877	NaN
0.000000	NaN
0.000000	NaN
0.000000	NaN
0.000000	NaN
0.000000	NaN
0.000000	NaN
0.000000	NaN
0.000000	NaN
0.000000	NaN
0.000000	NaN
0.000000	NaN
0.000000	NaN
0.000000	NaN
0.000000	NaN
0.000000	NaN
0.000000	NaN
0.000000	NaN
0.000000	NaN
0.000000	NaN
0.000000	NaN
0.000000	NaN
0.000000	NaN
0.000000	NaN
0.000000	NaN
0.000000	NaN
0.000000	NaN
0.000000	NaN
0.000000	NaN
0.000000	NaN
0.000000	NaN
0.000000	NaN
0.000000	NaN

Count Rate History (KHz)  CR CHA / CR CHB
0.000000	317.182541	328.025818
0.104858	257.644653	286.312103
0.209715	368.347168	394.248962
0.314573	349.760056	368.127823
0.419430	292.549133	294.713974
0.524288	301.618576	319.852829
0.629146	352.830887	372.343063
0.734003	271.997452	291.414261
0.838861	278.244019	291.881561
0.943718	329.971313	344.266891
1.048576	313.301086	336.904526
1.153434	370.121002	401.868820
1.258291	341.014862	356.035233
1.363149	334.863663	361.633301
1.468006	300.483704	313.539505
1.572864	340.671539	346.021652
1.677722	326.614380	349.264145
1.782579	334.177017	365.571976
1.887437	314.579010	323.600769
1.992294	344.514847	360.507965
2.097152	348.329544	366.163254
2.202010	354.852676	378.046036
2.306867	288.114548	311.489105
2.411725	359.611511	368.967056
2.516582	336.599350	353.546143
2.621440	307.769775	321.941376
2.726298	289.344788	304.975510
2.831155	339.193344	353.736877
2.936013	275.621414	291.719437
3.040870	334.863663	358.791351
3.145728	308.551788	316.839218
3.250586	309.295654	324.783325
3.355443	291.929245	309.734344
3.460301	320.997238	341.186523
3.565158	397.777557	412.664413
3.670016	293.436050	334.472656
3.774874	386.676788	382.471085
3.879731	341.749191	358.371735
3.984589	343.227386	375.223160
4.089446	366.783142	380.649567
4.194304	255.689621	268.535614
4.299162	279.836655	298.118591
4.404019	269.136429	282.812119
4.508877	318.756104	336.608887
4.613734	321.893692	343.866348
4.718592	365.104675	379.276276
4.823450	302.009583	332.307816
4.928307	333.766937	352.649689
5.033165	358.161926	380.105972
5.138022	301.475525	311.651230
5.242880	304.756165	329.303741
5.347738	289.011002	296.678543
5.452595	274.848938	287.799835
5.557453	325.307846	346.965790
5.662310	247.592926	253.362656
5.767168	288.810730	305.004120
5.872026	331.974030	354.633331
5.976883	335.912704	352.392197
6.081741	285.596848	296.878815
6.186598	296.220779	308.523178
6.291456	316.619873	339.708328
6.396314	388.364792	416.040421
6.501171	283.584595	297.183990
6.606029	334.091187	349.502563
6.710886	348.901749	351.362228
6.815744	292.634964	310.249329
6.920602	337.076187	360.078812
7.025459	407.905579	428.619385
7.130317	351.333618	376.892090
7.235174	323.505402	342.540741
7.340032	292.434692	308.904648
7.444890	301.733017	337.715149
7.549747	361.385345	368.814468
7.654605	325.431824	343.685150
7.759462	322.103500	338.659286
7.864320	295.705795	305.624008
7.969178	294.809341	311.527252
8.074035	335.731506	352.869034
8.178893	343.532562	366.144180
8.283750	321.693420	354.185104
8.388608	269.956589	266.618729
8.493466	307.769775	326.261520
8.598323	332.193375	361.185074
8.703181	362.281799	372.486115
8.808038	361.709595	379.943848
8.912896	313.634872	328.340530
9.017754	302.019119	327.711105
9.122611	327.873230	344.934464
9.227469	331.611633	351.896286
9.332326	296.401978	310.916901
9.437184	295.038223	309.438705
9.542042	312.900543	340.042114
9.646899	355.987549	360.527039
9.751757	360.450745	386.438370
9.856614	323.038101	340.375900
9.961472	315.294266	329.570770
10.066330	293.483734	315.933228
10.171187	275.173187	295.867920
10.276045	318.155289	340.070724
10.380902	361.375809	386.447906
10.485760	290.460587	295.562744
10.590618	325.431824	338.554382
10.695475	274.162292	288.238525
10.800333	302.152634	318.470001
10.905190	278.282166	292.243958
11.010048	284.776688	297.431946
11.114906	348.711014	377.140045
11.219763	339.393616	357.179642
11.324621	267.400742	272.836685
11.429478	303.621292	321.989059
11.534336	309.190750	329.647064
11.639194	325.603485	342.760086
11.744051	310.630798	322.275162
11.848909	317.640305	336.894989
11.953766	283.565521	312.147141
12.058624	275.402069	277.309418
12.163482	316.457748	336.141586
12.268339	322.198868	341.091156
12.373197	352.134705	372.791290
12.478054	287.923813	317.010880
12.582912	355.348587	369.997025
12.687770	315.332413	334.777832
12.792627	329.408646	337.247849
12.897485	285.243988	300.731659
13.002342	324.916840	349.130630
13.107200	337.715149	358.009338
13.212058	328.168869	346.136093
13.316915	375.022888	404.138565
13.421773	258.836746	268.344879
13.526630	337.429047	357.847214
13.631488	316.114426	334.453583
13.736346	362.358093	375.690460
13.841203	248.527527	279.541016
13.946061	301.904678	294.542313
14.050918	322.437286	340.251923
14.155776	288.162231	296.583176
14.260634	277.452469	307.807922
14.365491	364.341736	372.743607
14.470349	309.820175	321.378708
14.575206	317.230225	335.350037
14.680064	312.156677	320.072174
14.784922	347.156525	372.257233
14.889779	297.393799	318.756104
14.994637	295.362473	308.790207
15.099494	319.681168	339.908600
15.204352	295.629501	305.690765
15.309210	308.189392	347.070694
15.414067	331.230164	334.882736
15.518925	309.810638	328.187943
15.623782	294.752121	301.933289
15.728640	354.185104	377.664566
15.833498	312.519073	319.576263
15.938355	330.152512	348.615646
16.043213	306.091309	325.069427
16.148070	263.290405	276.679993
16.252928	379.552841	406.713486
16.357786	338.716507	345.230103
16.462643	326.490402	351.953506
16.567501	286.245346	311.565399
16.672358	354.509354	373.954773
16.777216	329.351425	336.818695
16.882074	318.298340	333.013535
16.986931	302.677155	330.486298
17.091789	360.012054	365.943909
17.196646	295.305252	317.792892
17.301504	313.310623	333.023071
17.406362	343.217850	367.155075
17.511219	300.455093	314.626694
17.616077	263.824463	276.098251
17.720934	304.546356	319.776535
17.825792	288.925171	309.095383
17.930650	331.621170	346.221924
18.035507	291.023254	300.998688
18.140365	266.418457	285.749435
18.245222	273.017883	294.713974
18.350080	319.948196	336.399078
18.454938	283.327103	295.658112
18.559795	328.474045	349.445343
18.664653	317.296982	349.712372
18.769510	312.566757	321.969986
18.874368	346.536636	366.735458
18.979226	261.230469	277.614594
19.084083	299.987793	315.351486
19.188941	322.866440	326.128006
19.293798	328.502655	358.657837
19.398656	298.299789	303.544998
19.503514	364.866257	392.560959
19.608371	318.479538	329.961777
19.713229	295.190811	314.931870
19.818086	342.454910	355.081558
