1/9/2026	1:07 PM
Pseudo Cross Correlation
Scattering angle:	80.0
Duration (s):	20
Wavelength (nm):	632.8
Refractive index:	1.330
Viscosity (mPas):	0.712
Temperature (K):	308.7
Laser intensity (mW):	2.650367
Average Count rate  A (kHz):	387.7
Average Count rate  B (kHz):	409.5
Intercept:	0.9212
Cumulant 1st	137.05
Cumulant 2nd	133.20	24.13
Cumulant 3rd	128.91	46.35

Lag time (s)         g2-1
1.250000E-8	0.926859
2.500000E-8	0.924076
3.750000E-8	0.922432
5.000000E-8	0.912819
6.250000E-8	0.915399
7.500000E-8	0.930477
8.750000E-8	0.923849
1.000000E-7	0.927264
1.125000E-7	0.922584
1.250000E-7	0.924633
1.375000E-7	0.923267
1.500000E-7	0.919624
1.625000E-7	0.924405
1.750000E-7	0.919118
1.875000E-7	0.931109
2.000000E-7	0.930198
2.125000E-7	0.925923
2.250000E-7	0.925746
2.375000E-7	0.920332
2.500000E-7	0.918233
2.625000E-7	0.928073
2.750000E-7	0.925012
2.875000E-7	0.927846
3.000000E-7	0.926808
3.125000E-7	0.918612
3.250000E-7	0.939887
3.375000E-7	0.904521
3.500000E-7	0.918233
3.625000E-7	0.913198
3.750000E-7	0.913780
3.875000E-7	0.919244
4.000000E-7	0.924177
4.125000E-7	0.942594
4.250000E-7	0.926176
4.375000E-7	0.915728
4.500000E-7	0.921825
4.625000E-7	0.922609
4.750000E-7	0.920155
4.875000E-7	0.928605
5.000000E-7	0.921420
5.125000E-7	0.936826
5.250000E-7	0.923545
5.375000E-7	0.919169
5.500000E-7	0.910061
5.625000E-7	0.920282
5.750000E-7	0.918460
5.875000E-7	0.915981
6.000000E-7	0.910542
6.125000E-7	0.918283
6.250000E-7	0.918182
6.375000E-7	0.923140
6.500000E-7	0.923773
6.625000E-7	0.927061
6.750000E-7	0.920231
6.875000E-7	0.923140
7.000000E-7	0.919346
7.125000E-7	0.919169
7.250000E-7	0.914539
7.375000E-7	0.926834
7.500000E-7	0.918587
7.625000E-7	0.923241
7.750000E-7	0.917575
7.875000E-7	0.923393
8.000000E-7	0.921066
8.250000E-7	0.924152
8.500000E-7	0.929541
8.750000E-7	0.919839
9.000000E-7	0.922533
9.250000E-7	0.920838
9.500000E-7	0.918751
9.750000E-7	0.914109
1.000000E-6	0.922166
1.025000E-6	0.914944
1.050000E-6	0.917992
1.075000E-6	0.920143
1.100000E-6	0.922533
1.125000E-6	0.922748
1.150000E-6	0.927706
1.175000E-6	0.915526
1.200000E-6	0.923419
1.225000E-6	0.922887
1.250000E-6	0.924962
1.275000E-6	0.916525
1.300000E-6	0.922369
1.325000E-6	0.913464
1.350000E-6	0.923330
1.375000E-6	0.923469
1.400000E-6	0.919763
1.425000E-6	0.913047
1.450000E-6	0.910087
1.475000E-6	0.914172
1.500000E-6	0.918169
1.525000E-6	0.917524
1.550000E-6	0.919447
1.575000E-6	0.921382
1.600000E-6	0.921875
1.650000E-6	0.916829
1.700000E-6	0.917423
1.750000E-6	0.924127
1.800000E-6	0.921578
1.850000E-6	0.914191
1.900000E-6	0.921768
1.950000E-6	0.914602
2.000000E-6	0.916651
2.050000E-6	0.917948
2.100000E-6	0.917271
2.150000E-6	0.917689
2.200000E-6	0.920358
2.250000E-6	0.915115
2.300000E-6	0.916911
2.350000E-6	0.915709
2.400000E-6	0.914957
2.450000E-6	0.915823
2.500000E-6	0.917809
2.550000E-6	0.923539
2.600000E-6	0.913337
2.650000E-6	0.918644
2.700000E-6	0.912370
2.750000E-6	0.923064
2.800000E-6	0.917088
2.850000E-6	0.917069
2.900000E-6	0.916493
2.950000E-6	0.913249
3.000000E-6	0.925910
3.050000E-6	0.918757
3.100000E-6	0.915266
3.150000E-6	0.915437
3.200000E-6	0.911952
3.300000E-6	0.918179
3.400000E-6	0.922340
3.500000E-6	0.919801
3.600000E-6	0.914489
3.700000E-6	0.913701
3.800000E-6	0.918214
3.900000E-6	0.917249
4.000000E-6	0.915877
4.100000E-6	0.915077
4.200000E-6	0.916626
4.300000E-6	0.915241
4.400000E-6	0.916459
4.500000E-6	0.913461
4.600000E-6	0.918394
4.700000E-6	0.913647
4.800000E-6	0.914827
4.900000E-6	0.921075
5.000000E-6	0.916642
5.100000E-6	0.915225
5.200000E-6	0.916402
5.300000E-6	0.917704
5.400000E-6	0.919207
5.500000E-6	0.913821
5.600000E-6	0.912487
5.700000E-6	0.912702
5.800000E-6	0.913831
5.900000E-6	0.912446
6.000000E-6	0.914087
6.100000E-6	0.909723
6.200000E-6	0.912345
6.300000E-6	0.912322
6.400000E-6	0.910760
6.600000E-6	0.915140
6.800000E-6	0.911867
7.000000E-6	0.913073
7.200000E-6	0.911516
7.400000E-6	0.912941
7.600000E-6	0.913015
7.800000E-6	0.912474
8.000000E-6	0.911537
8.200000E-6	0.914205
8.400000E-6	0.911051
8.600000E-6	0.910398
8.800000E-6	0.910673
9.000000E-6	0.906744
9.200000E-6	0.908586
9.400000E-6	0.910324
9.600000E-6	0.906966
9.800000E-6	0.911502
1.000000E-5	0.908376
1.020000E-5	0.907393
1.040000E-5	0.908381
1.060000E-5	0.907149
1.080000E-5	0.910450
1.100000E-5	0.904487
1.120000E-5	0.907612
1.140000E-5	0.907780
1.160000E-5	0.905574
1.180000E-5	0.907582
1.200000E-5	0.906899
1.220000E-5	0.906012
1.240000E-5	0.905837
1.260000E-5	0.903353
1.280000E-5	0.905698
1.320000E-5	0.904328
1.360000E-5	0.903909
1.400000E-5	0.903751
1.440000E-5	0.903985
1.480000E-5	0.901652
1.520000E-5	0.903216
1.560000E-5	0.905106
1.600000E-5	0.901511
1.640000E-5	0.899396
1.680000E-5	0.901542
1.720000E-5	0.897957
1.760000E-5	0.899603
1.800000E-5	0.899425
1.840000E-5	0.898615
1.880000E-5	0.897659
1.920000E-5	0.898521
1.960000E-5	0.897596
2.000000E-5	0.896264
2.040000E-5	0.897047
2.080000E-5	0.895292
2.120000E-5	0.896403
2.160000E-5	0.893689
2.200000E-5	0.891553
2.240000E-5	0.893437
2.280000E-5	0.893052
2.320000E-5	0.891352
2.360000E-5	0.893330
2.400000E-5	0.890820
2.440000E-5	0.890155
2.480000E-5	0.889152
2.520000E-5	0.889672
2.560000E-5	0.890015
2.640000E-5	0.888484
2.720000E-5	0.889008
2.800000E-5	0.885797
2.880000E-5	0.885417
2.960000E-5	0.885894
3.040000E-5	0.885547
3.120000E-5	0.883296
3.200000E-5	0.882022
3.280000E-5	0.880957
3.360000E-5	0.880274
3.440000E-5	0.878012
3.520000E-5	0.877634
3.600000E-5	0.876281
3.680000E-5	0.876448
3.760000E-5	0.875225
3.840000E-5	0.874839
3.920000E-5	0.872779
4.000000E-5	0.871511
4.080000E-5	0.872575
4.160000E-5	0.871449
4.240000E-5	0.869615
4.320000E-5	0.868859
4.400000E-5	0.868259
4.480000E-5	0.866052
4.560000E-5	0.865504
4.640000E-5	0.864601
4.720000E-5	0.863183
4.800000E-5	0.863761
4.880000E-5	0.861224
4.960000E-5	0.860331
5.040000E-5	0.859384
5.120000E-5	0.858473
5.280000E-5	0.857693
5.440000E-5	0.854859
5.600000E-5	0.851672
5.760000E-5	0.850836
5.920000E-5	0.849730
6.080000E-5	0.847229
6.240000E-5	0.845087
6.400000E-5	0.843999
6.560000E-5	0.841294
6.720000E-5	0.840845
6.880000E-5	0.838810
7.040000E-5	0.836488
7.200000E-5	0.833572
7.360000E-5	0.832029
7.520000E-5	0.831134
7.680000E-5	0.830109
7.840000E-5	0.826730
8.000000E-5	0.825327
8.160000E-5	0.823439
8.320000E-5	0.821351
8.480000E-5	0.819868
8.640000E-5	0.818196
8.800000E-5	0.815583
8.960000E-5	0.814523
9.120000E-5	0.812353
9.280000E-5	0.810605
9.440000E-5	0.808342
9.600000E-5	0.807628
9.760000E-5	0.805933
9.920000E-5	0.803270
0.000101	0.802582
0.000102	0.800921
0.000106	0.797322
0.000109	0.793330
0.000112	0.789616
0.000115	0.786008
0.000118	0.782853
0.000122	0.779343
0.000125	0.775272
0.000128	0.772827
0.000131	0.768689
0.000134	0.765461
0.000138	0.762462
0.000141	0.758930
0.000144	0.755230
0.000147	0.751930
0.000150	0.748687
0.000154	0.745239
0.000157	0.741769
0.000160	0.739796
0.000163	0.736038
0.000166	0.732438
0.000170	0.729441
0.000173	0.725497
0.000176	0.722146
0.000179	0.720117
0.000182	0.716831
0.000186	0.712837
0.000189	0.710295
0.000192	0.707103
0.000195	0.703776
0.000198	0.700976
0.000202	0.697893
0.000205	0.695094
0.000211	0.688530
0.000218	0.682208
0.000224	0.676436
0.000230	0.670486
0.000237	0.664730
0.000243	0.658311
0.000250	0.652628
0.000256	0.647163
0.000262	0.641681
0.000269	0.635657
0.000275	0.630448
0.000282	0.625079
0.000288	0.619052
0.000294	0.613928
0.000301	0.608922
0.000307	0.602781
0.000314	0.597257
0.000320	0.592294
0.000326	0.587252
0.000333	0.582569
0.000339	0.577018
0.000346	0.571862
0.000352	0.567088
0.000358	0.562262
0.000365	0.557512
0.000371	0.552702
0.000378	0.547850
0.000384	0.542916
0.000390	0.538470
0.000397	0.533883
0.000403	0.529173
0.000410	0.525143
0.000422	0.515499
0.000435	0.506595
0.000448	0.497806
0.000461	0.489330
0.000474	0.480922
0.000486	0.472588
0.000499	0.465107
0.000512	0.456799
0.000525	0.449392
0.000538	0.441684
0.000550	0.434109
0.000563	0.427127
0.000576	0.419990
0.000589	0.413329
0.000602	0.406574
0.000614	0.399716
0.000627	0.393171
0.000640	0.386634
0.000653	0.380366
0.000666	0.373691
0.000678	0.367552
0.000691	0.361266
0.000704	0.355491
0.000717	0.349316
0.000730	0.343581
0.000742	0.337840
0.000755	0.331921
0.000768	0.326573
0.000781	0.321156
0.000794	0.315870
0.000806	0.310280
0.000819	0.305207
0.000845	0.295498
0.000870	0.286041
0.000896	0.276791
0.000922	0.268074
0.000947	0.259221
0.000973	0.250535
0.000998	0.243091
0.001024	0.234760
0.001050	0.227215
0.001075	0.220264
0.001101	0.213053
0.001126	0.206101
0.001152	0.199532
0.001178	0.192689
0.001203	0.186430
0.001229	0.179905
0.001254	0.174066
0.001280	0.168599
0.001306	0.163155
0.001331	0.157613
0.001357	0.152324
0.001382	0.147197
0.001408	0.142689
0.001434	0.137523
0.001459	0.132672
0.001485	0.128158
0.001510	0.123475
0.001536	0.119083
0.001562	0.114836
0.001587	0.110890
0.001613	0.106741
0.001638	0.103246
0.001690	0.096411
0.001741	0.089933
0.001792	0.083930
0.001843	0.078588
0.001894	0.073216
0.001946	0.068721
0.001997	0.064054
0.002048	0.060093
0.002099	0.055882
0.002150	0.051813
0.002202	0.048237
0.002253	0.044612
0.002304	0.041306
0.002355	0.037965
0.002406	0.034855
0.002458	0.031339
0.002509	0.028360
0.002560	0.025406
0.002611	0.022653
0.002662	0.019878
0.002714	0.017801
0.002765	0.016205
0.002816	0.014572
0.002867	0.012810
0.002918	0.010803
0.002970	0.008995
0.003021	0.007485
0.003072	0.005826
0.003123	0.004737
0.003174	0.003496
0.003226	0.001818
0.003277	0.000704
0.003379	-0.002413
0.003482	-0.005832
0.003584	-0.008906
0.003686	-0.011501
0.003789	-0.013237
0.003891	-0.015110
0.003994	-0.015807
0.004096	-0.016964
0.004198	-0.017929
0.004301	-0.018151
0.004403	-0.018057
0.004506	-0.016874
0.004608	-0.015739
0.004710	-0.014532
0.004813	-0.013452
0.004915	-0.012461
0.005018	-0.011665
0.005120	-0.010675
0.005222	-0.009982
0.005325	-0.009067
0.005427	-0.008377
0.005530	-0.007350
0.005632	-0.006669
0.005734	-0.005269
0.005837	-0.004107
0.005939	-0.003094
0.006042	-0.002363
0.006144	-0.002017
0.006246	-0.001704
0.006349	-0.001993
0.006451	-0.002410
0.006554	-0.002920
0.006758	-0.004312
0.006963	-0.005042
0.007168	-0.005808
0.007373	-0.005283
0.007578	-0.003037
0.007782	-0.002407
0.007987	-0.002484
0.008192	-0.002907
0.008397	-0.003751
0.008602	-0.004172
0.008806	-0.004742
0.009011	-0.004795
0.009216	-0.003920
0.009421	-0.003205
0.009626	-0.001964
0.009830	-0.001494
0.010035	-0.001380
0.010240	-0.000928
0.010445	-0.000993
0.010650	-0.001422
0.010854	-0.001963
0.011059	-0.002029
0.011264	-0.001987
0.011469	-0.002855
0.011674	-0.004250
0.011878	-0.006262
0.012083	-0.006732
0.012288	-0.006226
0.012493	-0.005939
0.012698	-0.005460
0.012902	-0.003570
0.013107	-0.001733
0.013517	0.000869
0.013926	0.001000
0.014336	-0.000312
0.014746	0.001053
0.015155	0.001680
0.015565	0.004334
0.015974	0.004858
0.016384	0.007522
0.016794	0.007739
0.017203	0.006868
0.017613	0.006240
0.018022	0.004982
0.018432	0.004714
0.018842	0.002834
0.019251	0.005223
0.019661	0.007510
0.020070	0.008486
0.020480	0.009776
0.020890	0.008298
0.021299	0.006321
0.021709	0.004472
0.022118	0.004404
0.022528	0.000640
0.022938	-0.002911
0.023347	-0.004582
0.023757	-0.004296
0.024166	-0.002523
0.024576	-0.000177
0.024986	0.004088
0.025395	0.006192
0.025805	0.005345
0.026214	0.003492
0.027034	0.002477
0.027853	0.001719
0.028672	0.001348
0.029491	-0.001215
0.030310	-8.342454E-5
0.031130	0.000716
0.031949	-0.001580
0.032768	0.001322
0.033587	0.002057
0.034406	-0.002224
0.035226	0.002368
0.036045	0.001880
0.036864	-0.006186
0.037683	-0.006119
0.038502	-0.003213
0.039322	0.001404
0.040141	0.003280
0.040960	0.005472
0.041779	0.004294
0.042598	0.002501
0.043418	-0.002076
0.044237	-0.005926
0.045056	-0.006861
0.045875	-0.005089
0.046694	-0.004906
0.047514	-0.002391
0.048333	0.001662
0.049152	0.003730
0.049971	0.008266
0.050790	0.006162
0.051610	-0.001988
0.052429	-0.007039
0.054067	-0.005392
0.055706	-0.011436
0.057344	-0.012255
0.058982	-0.012316
0.060621	-0.010462
0.062259	-0.002206
0.063898	-0.002305
0.065536	-0.001302
0.067174	-0.008664
0.068813	-0.000422
0.070451	-0.004503
0.072090	-0.005118
0.073728	0.003226
0.075366	0.008385
0.077005	0.015692
0.078643	0.003923
0.080282	0.002524
0.081920	0.002816
0.083558	-0.002017
0.085197	-0.010163
0.086835	-0.008293
0.088474	-0.005618
0.090112	-0.006544
0.091750	-0.003462
0.093389	0.003167
0.095027	0.000222
0.096666	-0.000393
0.098304	0.006551
0.099942	0.000158
0.101581	0.001267
0.103219	0.010337
0.104858	0.009933
0.108134	-0.002977
0.111411	-0.006993
0.114688	0.003872
0.117965	0.001951
0.121242	-0.004449
0.124518	0.003278
0.127795	-0.009839
0.131072	-0.000791
0.134349	0.003693
0.137626	0.007292
0.140902	0.001476
0.144179	0.005810
0.147456	0.003439
0.150733	-0.001368
0.154010	0.001201
0.157286	0.005157
0.160563	0.006772
0.163840	0.004058
0.167117	0.002785
0.170394	0.003492
0.173670	0.000444
0.176947	-0.000158
0.180224	-0.002849
0.183501	3.529979E-5
0.186778	-0.001219
0.190054	-0.002009
0.193331	0.001137
0.196608	0.001723
0.199885	0.001941
0.203162	0.002307
0.206438	-0.000708
0.209715	-0.000410
0.216269	-0.003054
0.222822	0.004759
0.229376	0.000224
0.235930	-0.004269
0.242483	0.001647
0.249037	0.001632
0.255590	-0.000794
0.262144	0.002437
0.268698	0.002291
0.275251	0.001448
0.281805	0.003249
0.288358	-0.000198
0.294912	-0.003820
0.301466	0.004637
0.308019	-0.001688
0.314573	-0.002830
0.321126	0.004449
0.327680	0.000951
0.334234	-0.002841
0.340787	0.005680
0.347341	-0.002671
0.353894	0.004124
0.360448	-0.001210
0.367002	-0.002947
0.373555	-0.001378
0.380109	0.004766
0.386662	0.004382
0.393216	-0.002138
0.399770	-0.002278
0.406323	0.001376
0.412877	-0.002749
0.419430	-0.004191
0.432538	-0.002450
0.445645	-0.003629
0.458752	-0.000594
0.471859	0.002734
0.484966	0.002544
0.498074	0.001646
0.511181	0.000352
0.524288	-0.000461
0.537395	-0.000259
0.550502	0.003316
0.563610	0.000222
0.576717	-0.005001
0.589824	-0.000904
0.602931	-0.001587
0.616038	-0.000326
0.629146	0.002299
0.642253	-0.004194
0.655360	-0.000666
0.668467	0.004351
0.681574	0.002915
0.694682	-0.001059
0.707789	0.000207
0.720896	-0.002318
0.734003	-0.000690
0.747110	-0.002594
0.760218	-0.002161
0.773325	0.005610
0.786432	-0.001432
0.799539	0.002355
0.812646	-0.000998
0.825754	-0.001228
0.838861	0.001945
0.865075	-0.001132
0.891290	0.000833
0.917504	-0.001147
0.943718	-0.001536
0.969933	0.002629
0.996147	-0.000299
1.022362	-0.001474
1.048576	0.001855
1.074790	0.002498
1.101005	0.001041
1.127219	-0.002024
1.153434	-0.000134
1.179648	-0.000301
1.205862	-0.000339
1.232077	-0.001039
1.258291	0.002362
1.284506	-0.002016
1.310720	-0.001227
1.336934	-0.000874
1.363149	0.000200
1.389363	-0.000440
1.415578	0.001106
1.441792	-0.001317
1.468006	0.000501
1.494221	-0.001104
1.520435	-0.000399
1.546650	-0.002970
1.572864	0.001540
1.599078	-0.000916
1.625293	0.001698
1.651507	-0.000544
1.677722	-0.003674
1.730150	0.001320
1.782579	0.000944
1.835008	-0.002448
1.887437	0.003314
1.939866	-0.001517
1.992294	-0.001327
2.044723	0.000480
2.097152	0.000332
2.149581	-0.000298
2.202010	-0.000830
2.254438	-0.002228
2.306867	-0.001212
2.359296	0.000918
2.411725	-0.001878
2.464154	0.001473
2.516582	8.192140E-5
2.569011	-0.000785
2.621440	-0.001687
2.673869	0.002839
2.726298	-0.000480
2.778726	-0.001611
2.831155	0.000487
2.883584	-0.001016
2.936013	-0.000198
2.988442	-0.000442
3.040870	-0.000700
3.093299	0.000314
3.145728	0.001674
3.198157	-0.001108
3.250586	-0.000425
3.303015	-0.000370
3.355443	0.001440
3.460301	0.000311
3.565158	0.000880
3.670016	0.000537
3.774873	0.001053
3.879731	0.000548
3.984589	7.695550E-5
4.089447	-0.000850
4.194304	0.000933
4.299161	-0.000569
4.404019	-0.000788
4.508877	-0.000277
4.613734	0.001322
4.718592	-0.000349
4.823450	-0.001146
4.928307	0.000113
5.033165	-0.000376
5.138022	-0.000423
5.242880	9.189711E-5
5.347738	-0.000757
5.452595	0.000264
5.557453	0.001161
5.662311	0.000421
5.767168	-0.000135
5.872025	-0.000710
5.976883	0.000469
6.081741	-0.000664
6.186598	-0.000144
6.291456	0.000569
6.396314	-0.000987
6.501171	-0.000116
6.606029	-0.000764
6.710886	-0.001401
6.920601	-0.000999
7.130317	-0.001046
7.340032	0.000415
7.549747	0.000127
7.759462	-4.855243E-5
7.969178	-0.000195
8.178893	4.549578E-5
8.388608	0.000463
8.598323	-0.001568
8.808039	-0.000279
9.017754	-0.000468
9.227468	0.000304
9.437184	0.000884
9.646899	0.001546
9.856614	-0.001004
10.066330	0.000199
10.276045	0.000169
10.485760	0.000355
10.695476	0.000298
10.905190	1.852861E-5
11.114905	0.000793
11.324621	0.000410
11.534336	0.001877
11.744051	5.433536E-5
11.953767	0.000666
12.163482	0.001140
12.373197	-0.001739
12.582912	-7.761348E-6
12.792627	0.000720
13.002342	-0.001614
13.212058	-0.000102
13.421773	-0.000555
13.841203	-0.000954
14.260633	0.000863
14.680064	0.000767
15.099494	0.001785
15.518925	0.001051
15.938355	0.000249
16.357786	-0.001590
16.777216	0.000588
17.196646	-0.000722
17.616077	-0.000107
18.035507	0.000303
18.454937	0.000315
18.874369	0.000135
19.293798	0.000000
19.713228	NaN
20.132660	NaN
20.552090	NaN
20.971519	NaN
21.390951	NaN
21.810381	NaN
22.229811	NaN
22.649242	NaN
23.068672	NaN
23.488102	NaN
23.907534	NaN
24.326963	NaN
24.746393	NaN
25.165825	NaN
25.585255	NaN
26.004684	NaN
26.424116	NaN
26.843546	NaN
27.682405	NaN
28.521267	NaN
29.360128	NaN
30.198988	NaN
31.037849	NaN
31.876711	NaN
32.715572	NaN
33.554432	NaN
34.393291	NaN
35.232155	NaN
36.071014	NaN
36.909874	NaN
37.748737	NaN
38.587597	NaN
39.426456	NaN
40.265320	NaN
41.104179	NaN
41.943039	NaN
42.781902	NaN
43.620762	NaN
44.459621	NaN
45.298485	NaN
46.137344	NaN
46.976204	NaN
47.815067	NaN
48.653927	NaN
49.492786	NaN
50.331650	NaN
51.170509	NaN
52.009369	NaN
52.848232	NaN
53.687092	NaN
55.364811	NaN
57.042534	NaN
58.720257	NaN
60.397976	NaN
62.075699	NaN
63.753422	NaN
65.431145	NaN
67.108864	NaN
68.786583	NaN
70.464310	NaN
72.142029	NaN
73.819748	NaN
75.497475	NaN
77.175194	NaN
78.852913	NaN
80.530640	NaN
82.208359	NaN
83.886078	NaN
85.563805	NaN
87.241524	NaN
88.919243	NaN
90.596970	NaN
92.274689	NaN
93.952408	NaN
95.630135	NaN
97.307854	NaN
98.985573	NaN
100.663300	NaN
102.341019	NaN
104.018738	NaN
105.696465	NaN
107.374184	NaN
110.729622	NaN
114.085068	NaN
117.440514	NaN
120.795952	NaN
124.151398	NaN
127.506844	NaN
130.862289	NaN
134.217728	NaN
137.573166	NaN
140.928619	NaN
144.284058	NaN
147.639496	NaN
150.994949	NaN
154.350388	NaN
157.705826	NaN
161.061279	NaN
164.416718	NaN
167.772156	NaN
171.127609	NaN
174.483047	NaN
177.838486	NaN
181.193939	NaN
184.549377	NaN
187.904816	NaN
191.260269	NaN
194.615707	NaN
197.971146	NaN
201.326599	NaN
204.682037	NaN
208.037476	NaN
211.392929	NaN
214.748367	NaN
221.459244	NaN
228.170135	NaN
234.881027	NaN
241.591904	NaN
248.302795	NaN
255.013687	NaN
261.724579	NaN
268.435455	NaN
275.146332	NaN
281.857239	NaN
288.568115	NaN
295.278992	NaN
301.989899	NaN
308.700775	NaN
315.411652	NaN
322.122559	NaN
328.833435	NaN
335.544312	NaN
342.255219	NaN
348.966095	NaN
355.676971	NaN
362.387878	NaN
369.098755	NaN
375.809631	NaN
382.520538	NaN
389.231415	NaN
395.942291	NaN
402.653198	NaN
409.364075	NaN
416.074951	NaN
422.785858	NaN
429.496735	NaN
442.918488	NaN
456.340271	NaN
469.762054	NaN
483.183807	NaN
496.605591	NaN
510.027374	NaN
523.449158	NaN
536.870911	NaN
550.292664	NaN
563.714478	NaN
577.136230	NaN
590.557983	NaN
603.979797	NaN
617.401550	NaN
630.823303	NaN
644.245117	NaN
657.666870	NaN
671.088623	NaN
684.510437	NaN
697.932190	NaN
711.353943	NaN
724.775757	NaN
738.197510	NaN
751.619263	NaN
765.041077	NaN
778.462830	NaN
791.884583	NaN
805.306396	NaN
818.728149	NaN
832.149902	NaN
845.571716	NaN
858.993469	NaN
885.836975	NaN
912.680542	NaN
939.524109	NaN
966.367615	NaN
993.211182	NaN
1020.054749	NaN
1046.898315	NaN
1073.741821	NaN
1100.585327	NaN
1127.428955	NaN
1154.272461	NaN
1181.115967	NaN
1207.959595	NaN
1234.803101	NaN
1261.646606	NaN
1288.490234	NaN
1315.333740	NaN
1342.177246	NaN
1369.020874	NaN
1395.864380	NaN
1422.707886	NaN
1449.551514	NaN
1476.395020	NaN
1503.238525	NaN
1530.082153	NaN
1556.925659	NaN
1583.769165	NaN
1610.612793	NaN
1637.456299	NaN
1664.299805	NaN
1691.143433	NaN
1717.986938	NaN
1771.673950	NaN
1825.361084	NaN
1879.048218	NaN
1932.735229	NaN
1986.422363	NaN
2040.109497	NaN
2093.796631	NaN
2147.483643	NaN
2201.170654	NaN
2254.857910	NaN
2308.544922	NaN
2362.231934	NaN
2415.919189	NaN
2469.606201	NaN
2523.293213	NaN
2576.980469	NaN
2630.667480	NaN
2684.354492	NaN
2738.041748	NaN
2791.728760	NaN
2845.415771	NaN
2899.103027	NaN
2952.790039	NaN
3006.477051	NaN
3060.164307	NaN
3113.851318	NaN
3167.538330	NaN
3221.225586	NaN
3274.912598	NaN
3328.599609	NaN
3382.286865	NaN
3435.973877	NaN
0.000000	NaN
0.000000	NaN
0.000000	NaN
0.000000	NaN
0.000000	NaN
0.000000	NaN
0.000000	NaN
0.000000	NaN
0.000000	NaN
0.000000	NaN
0.000000	NaN
0.000000	NaN
0.000000	NaN
0.000000	NaN
0.000000	NaN
0.000000	NaN
0.000000	NaN
0.000000	NaN
0.000000	NaN
0.000000	NaN
0.000000	NaN
0.000000	NaN
0.000000	NaN
0.000000	NaN
0.000000	NaN
0.000000	NaN
0.000000	NaN
0.000000	NaN
0.000000	NaN
0.000000	NaN
0.000000	NaN
0.000000	NaN

Count Rate History (KHz)  CR CHA / CR CHB
0.000000	377.082825	404.558182
0.104858	385.723114	407.953262
0.209715	342.283249	355.701447
0.314573	411.233902	429.887772
0.419430	415.601730	445.537567
0.524288	411.605835	438.032150
0.629146	356.779099	371.999741
0.734003	328.178406	347.652435
0.838861	353.336334	382.852554
0.943718	362.024307	381.364822
1.048576	396.842957	432.767868
1.153434	368.242264	366.268158
1.258291	373.859406	394.563675
1.363149	373.020172	387.945175
1.468006	320.692062	345.859528
1.572864	364.999771	384.244919
1.677722	344.476700	363.502502
1.782579	400.114059	417.079926
1.887437	368.652344	387.611389
1.992294	378.303528	405.330658
2.097152	456.991196	476.331711
2.202010	378.656387	417.680740
2.306867	448.875427	459.127426
2.411725	341.396332	380.792618
2.516582	390.253067	390.701294
2.621440	411.453247	442.075729
2.726298	352.029800	374.994278
2.831155	381.469727	390.090942
2.936013	446.825027	479.478836
3.040870	390.033722	417.375565
3.145728	374.469757	387.306213
3.250586	415.525436	448.198318
3.355443	336.008072	335.321426
3.460301	393.295288	415.916443
3.565158	410.928726	429.267883
3.670016	460.710526	491.027832
3.774874	396.575928	422.754288
3.879731	382.614136	398.502350
3.984589	392.341614	422.134399
4.089446	332.355499	359.458923
4.194304	424.795151	438.222885
4.299162	385.322571	407.075882
4.404019	346.069336	361.728668
4.508877	310.192108	337.877274
4.613734	489.358902	520.362854
4.718592	381.574631	390.768051
4.823450	409.917831	430.641174
4.928307	364.456177	381.946564
5.033165	333.900452	364.294052
5.138022	326.299667	332.946777
5.242880	333.690643	385.332108
5.347738	383.911133	368.404388
5.452595	421.590805	452.146530
5.557453	441.656113	465.927124
5.662310	369.529724	404.100418
5.767168	435.485840	445.652008
5.872026	388.908386	417.394638
5.976883	399.246216	433.502197
6.081741	396.890640	422.439575
6.186598	375.976562	385.560989
6.291456	388.641357	402.221680
6.396314	451.784134	479.030609
6.501171	426.197052	452.451706
6.606029	380.001068	409.526825
6.710886	434.932709	445.775986
6.815744	367.050171	395.488739
6.920602	392.627716	407.924652
7.025459	285.749435	306.329727
7.130317	422.811508	462.551117
7.235174	393.428802	404.911041
7.340032	410.537720	427.169800
7.444890	395.040512	421.495438
7.549747	396.451950	421.428680
7.654605	424.242020	443.391800
7.759462	360.136032	387.535095
7.864320	444.278717	467.395782
7.969178	335.884094	358.181000
8.074035	345.220566	362.634659
8.178893	452.299118	477.838516
8.283750	441.551208	465.602875
8.388608	398.731232	415.573120
8.493466	380.048752	403.709412
8.598323	417.928696	435.857773
8.703181	365.781784	400.915146
8.808038	405.330658	420.131683
8.912896	387.182236	410.518646
9.017754	363.245010	382.976532
9.122611	267.562866	277.261734
9.227469	473.022461	518.026352
9.332326	392.951965	412.664413
9.437184	470.676422	498.285294
9.542042	453.138351	503.702164
9.646899	462.751389	465.135574
9.751757	406.532288	434.284210
9.856614	508.995056	540.695190
9.961472	336.999893	341.959000
10.066330	382.986069	414.505005
10.171187	379.810333	395.851135
10.276045	402.021408	429.735184
10.380902	297.307968	312.747955
10.485760	388.345718	421.142578
10.590618	409.593582	428.237915
10.695475	387.639999	401.191711
10.800333	324.029922	336.704254
10.905190	408.935547	434.684753
11.010048	389.947891	406.475067
11.114906	381.441116	408.525467
11.219763	315.933228	332.670212
11.324621	364.189148	390.911102
11.429478	382.928848	396.814346
11.534336	341.186523	355.577469
11.639194	340.642929	366.811752
11.744051	407.056808	437.936783
11.848909	312.309265	335.054398
11.953766	399.780273	408.926010
12.058624	458.154678	476.884842
12.163482	405.330658	430.936813
12.268339	328.130722	359.287262
12.373197	440.502167	463.809967
12.478054	332.689285	335.855484
12.582912	358.428955	387.449265
12.687770	400.066376	419.702530
12.792627	392.713547	412.015915
12.897485	342.369080	374.526978
13.002342	421.695709	437.269211
13.107200	413.722992	425.777435
13.212058	377.111435	401.334763
13.316915	366.802216	393.953323
13.421773	422.182083	438.737869
13.526630	335.617065	356.206894
13.631488	377.235413	405.073166
13.736346	407.323837	417.175293
13.841203	410.785675	444.221497
13.946061	388.774872	402.278900
14.050918	375.003815	394.649506
14.155776	399.951935	436.468124
14.260634	382.823944	403.165817
14.365491	407.571793	451.126099
14.470349	397.090912	416.517258
14.575206	384.197235	387.811661
14.680064	329.256058	351.600647
14.784922	386.619568	421.924591
14.889779	356.378555	369.358063
14.994637	437.221527	456.924438
15.099494	335.121155	373.134613
15.204352	473.537445	483.751297
15.309210	370.063782	388.813019
15.414067	381.793976	399.866104
15.518925	356.206894	382.757187
15.623782	369.186401	383.129120
15.728640	443.725586	469.427109
15.833498	338.907242	365.447998
15.938355	371.332169	379.571915
16.043213	382.118225	408.563614
16.148070	327.491760	348.443985
16.252928	393.056870	418.996811
16.357786	393.629074	405.941010
16.462643	292.873383	314.979553
16.567501	329.322815	341.234207
16.672358	318.403244	332.231522
16.777216	385.932922	409.994125
16.882074	406.007767	427.274704
16.986931	377.378464	398.349762
17.091789	398.931503	430.803299
17.196646	368.518829	385.351181
17.301504	367.507935	387.363434
17.406362	480.623245	509.986877
17.511219	459.718704	496.444702
17.616077	453.596115	480.089188
17.720934	398.778915	413.970947
17.825792	466.318130	490.732193
17.930650	377.702713	391.349792
18.035507	351.705551	374.393463
18.140365	417.137146	437.355042
18.245222	345.954895	375.595093
18.350080	484.485626	514.039993
18.454938	365.390778	372.219086
18.559795	409.069061	436.220169
18.664653	332.784653	353.641510
18.769510	431.652069	448.074341
18.874368	478.210449	511.093140
18.979226	391.578674	424.947739
19.084083	421.714783	450.496674
19.188941	364.141464	401.449203
19.293798	408.735275	399.942398
19.398656	387.134552	430.984497
19.503514	372.362137	381.631851
19.608371	360.660553	366.992950
19.713229	366.373062	387.296677
19.818086	412.740707	429.258347
