1/9/2026	1:31 PM
Pseudo Cross Correlation
Scattering angle:	130.0
Duration (s):	20
Wavelength (nm):	632.8
Refractive index:	1.330
Viscosity (mPas):	0.712
Temperature (K):	308.7
Laser intensity (mW):	2.650131
Average Count rate  A (kHz):	53.5
Average Count rate  B (kHz):	50.2
Intercept:	0.8312
Cumulant 1st	50.20
Cumulant 2nd	50.46	4.00
Cumulant 3rd	50.82	8.71

Lag time (s)         g2-1
1.250000E-8	0.862412
2.500000E-8	0.916570
3.750000E-8	0.779672
5.000000E-8	0.832325
6.250000E-8	0.829316
7.500000E-8	0.830820
8.750000E-8	0.806750
1.000000E-7	0.881969
1.125000E-7	0.851882
1.250000E-7	0.836838
1.375000E-7	0.921083
1.500000E-7	0.839847
1.625000E-7	0.821794
1.750000E-7	0.857899
1.875000E-7	0.906039
2.000000E-7	0.838342
2.125000E-7	0.884978
2.250000E-7	0.736045
2.375000E-7	0.887987
2.500000E-7	0.784185
2.625000E-7	0.702949
2.750000E-7	0.919578
2.875000E-7	0.856395
3.000000E-7	0.811264
3.125000E-7	0.900022
3.250000E-7	0.884978
3.375000E-7	0.869934
3.500000E-7	0.829316
3.625000E-7	0.881969
3.750000E-7	0.796220
3.875000E-7	0.875952
4.000000E-7	0.862412
4.125000E-7	0.863917
4.250000E-7	0.871439
4.375000E-7	0.848873
4.500000E-7	0.758611
4.625000E-7	0.857899
4.750000E-7	0.794716
4.875000E-7	0.866925
5.000000E-7	0.927100
5.125000E-7	0.773654
5.250000E-7	0.763124
5.375000E-7	0.811264
5.500000E-7	0.734541
5.625000E-7	0.824803
5.750000E-7	0.800733
5.875000E-7	0.808255
6.000000E-7	0.868430
6.125000E-7	0.863917
6.250000E-7	0.761619
6.375000E-7	0.833829
6.500000E-7	0.894004
6.625000E-7	0.791707
6.750000E-7	0.889491
6.875000E-7	0.757106
7.000000E-7	0.717993
7.125000E-7	0.800733
7.250000E-7	0.860908
7.375000E-7	0.860908
7.500000E-7	0.904535
7.625000E-7	0.862412
7.750000E-7	0.863917
7.875000E-7	0.797724
8.000000E-7	0.782681
8.250000E-7	0.802237
8.500000E-7	0.830820
8.750000E-7	0.773654
9.000000E-7	0.776663
9.250000E-7	0.851129
9.500000E-7	0.841351
9.750000E-7	0.812016
1.000000E-6	0.808255
1.025000E-6	0.836086
1.050000E-6	0.836086
1.075000E-6	0.869182
1.100000E-6	0.825555
1.125000E-6	0.826307
1.150000E-6	0.854138
1.175000E-6	0.824803
1.200000E-6	0.810511
1.225000E-6	0.812016
1.250000E-6	0.807503
1.275000E-6	0.807503
1.300000E-6	0.839847
1.325000E-6	0.825555
1.350000E-6	0.821042
1.375000E-6	0.869934
1.400000E-6	0.804494
1.425000E-6	0.796220
1.450000E-6	0.826307
1.475000E-6	0.821042
1.500000E-6	0.833829
1.525000E-6	0.821042
1.550000E-6	0.798476
1.575000E-6	0.903030
1.600000E-6	0.786442
1.650000E-6	0.837590
1.700000E-6	0.868054
1.750000E-6	0.790955
1.800000E-6	0.781176
1.850000E-6	0.798476
1.900000E-6	0.805622
1.950000E-6	0.795092
2.000000E-6	0.803366
2.050000E-6	0.816905
2.100000E-6	0.827436
2.150000E-6	0.838718
2.200000E-6	0.803742
2.250000E-6	0.802237
2.300000E-6	0.825179
2.350000E-6	0.796972
2.400000E-6	0.786818
2.450000E-6	0.839847
2.500000E-6	0.848873
2.550000E-6	0.779296
2.600000E-6	0.811264
2.650000E-6	0.777791
2.700000E-6	0.815401
2.750000E-6	0.812768
2.800000E-6	0.788322
2.850000E-6	0.783433
2.900000E-6	0.804870
2.950000E-6	0.796220
3.000000E-6	0.779296
3.050000E-6	0.778544
3.100000E-6	0.805998
3.150000E-6	0.777039
3.200000E-6	0.808631
3.300000E-6	0.799981
3.400000E-6	0.795280
3.500000E-6	0.847180
3.600000E-6	0.819914
3.700000E-6	0.799605
3.800000E-6	0.840223
3.900000E-6	0.790955
4.000000E-6	0.805810
4.100000E-6	0.810699
4.200000E-6	0.792271
4.300000E-6	0.815025
4.400000E-6	0.783621
4.500000E-6	0.817469
4.600000E-6	0.808631
4.700000E-6	0.803366
4.800000E-6	0.789262
4.900000E-6	0.824239
5.000000E-6	0.823487
5.100000E-6	0.834957
5.200000E-6	0.771210
5.300000E-6	0.807503
5.400000E-6	0.802049
5.500000E-6	0.769517
5.600000E-6	0.791895
5.700000E-6	0.799229
5.800000E-6	0.804118
5.900000E-6	0.850001
6.000000E-6	0.789638
6.100000E-6	0.770458
6.200000E-6	0.813332
6.300000E-6	0.813708
6.400000E-6	0.786253
6.600000E-6	0.797254
6.800000E-6	0.783245
7.000000E-6	0.805152
7.200000E-6	0.783903
7.400000E-6	0.795374
7.600000E-6	0.780142
7.800000E-6	0.798006
8.000000E-6	0.779296
8.200000E-6	0.758893
8.400000E-6	0.774689
8.600000E-6	0.790390
8.800000E-6	0.783997
9.000000E-6	0.781928
9.200000E-6	0.770269
9.400000E-6	0.794151
9.600000E-6	0.743191
9.800000E-6	0.775441
1.000000E-5	0.764064
1.020000E-5	0.768107
1.040000E-5	0.781176
1.060000E-5	0.794151
1.080000E-5	0.753063
1.100000E-5	0.751465
1.120000E-5	0.770740
1.140000E-5	0.769799
1.160000E-5	0.778638
1.180000E-5	0.766603
1.200000E-5	0.754003
1.220000E-5	0.756354
1.240000E-5	0.756542
1.260000E-5	0.758141
1.280000E-5	0.757952
1.320000E-5	0.771868
1.360000E-5	0.764252
1.400000E-5	0.727254
1.440000E-5	0.752311
1.480000E-5	0.764346
1.520000E-5	0.731955
1.560000E-5	0.743520
1.600000E-5	0.744836
1.640000E-5	0.737502
1.680000E-5	0.726925
1.720000E-5	0.722130
1.760000E-5	0.731344
1.800000E-5	0.740840
1.840000E-5	0.732472
1.880000E-5	0.728476
1.920000E-5	0.724903
1.960000E-5	0.729181
2.000000E-5	0.704312
2.040000E-5	0.747046
2.080000E-5	0.708355
2.120000E-5	0.717287
2.160000E-5	0.697213
2.200000E-5	0.689268
2.240000E-5	0.703513
2.280000E-5	0.700457
2.320000E-5	0.701539
2.360000E-5	0.703889
2.400000E-5	0.699799
2.440000E-5	0.698671
2.480000E-5	0.700645
2.520000E-5	0.691901
2.560000E-5	0.683956
2.640000E-5	0.689057
2.720000E-5	0.678832
2.800000E-5	0.683204
2.880000E-5	0.669994
2.960000E-5	0.673755
3.040000E-5	0.656172
3.120000E-5	0.670205
3.200000E-5	0.666609
3.280000E-5	0.664399
3.360000E-5	0.655773
3.440000E-5	0.641881
3.520000E-5	0.641646
3.600000E-5	0.643785
3.680000E-5	0.633560
3.760000E-5	0.630316
3.840000E-5	0.626908
3.920000E-5	0.621525
4.000000E-5	0.620443
4.080000E-5	0.604930
4.160000E-5	0.620326
4.240000E-5	0.611417
4.320000E-5	0.608291
4.400000E-5	0.606881
4.480000E-5	0.599500
4.560000E-5	0.590897
4.640000E-5	0.600064
4.720000E-5	0.600040
4.800000E-5	0.582576
4.880000E-5	0.579684
4.960000E-5	0.576464
5.040000E-5	0.581236
5.120000E-5	0.577334
5.280000E-5	0.574413
5.440000E-5	0.560135
5.600000E-5	0.561780
5.760000E-5	0.551061
5.920000E-5	0.540531
6.080000E-5	0.529155
6.240000E-5	0.533785
6.400000E-5	0.524031
6.560000E-5	0.516381
6.720000E-5	0.512536
6.880000E-5	0.503311
7.040000E-5	0.501125
7.200000E-5	0.499480
7.360000E-5	0.483979
7.520000E-5	0.487634
7.680000E-5	0.476962
7.840000E-5	0.473982
8.000000E-5	0.471009
8.160000E-5	0.458798
8.320000E-5	0.454284
8.480000E-5	0.449124
8.640000E-5	0.449489
8.800000E-5	0.438653
8.960000E-5	0.431189
9.120000E-5	0.434913
9.280000E-5	0.425864
9.440000E-5	0.424583
9.600000E-5	0.421798
9.760000E-5	0.416944
9.920000E-5	0.409609
0.000101	0.406082
0.000102	0.398866
0.000106	0.384609
0.000109	0.382228
0.000112	0.370834
0.000115	0.363153
0.000118	0.352335
0.000122	0.344649
0.000125	0.336787
0.000128	0.328866
0.000131	0.324335
0.000134	0.311978
0.000138	0.302023
0.000141	0.301048
0.000144	0.292522
0.000147	0.285222
0.000150	0.277259
0.000154	0.276517
0.000157	0.270105
0.000160	0.260491
0.000163	0.255914
0.000166	0.247564
0.000170	0.244643
0.000173	0.232679
0.000176	0.227908
0.000179	0.227614
0.000182	0.211578
0.000186	0.220281
0.000189	0.213505
0.000192	0.209968
0.000195	0.199937
0.000198	0.195812
0.000202	0.191646
0.000205	0.185241
0.000211	0.177995
0.000218	0.172568
0.000224	0.165229
0.000230	0.158158
0.000237	0.150172
0.000243	0.142477
0.000250	0.134741
0.000256	0.131580
0.000262	0.121252
0.000269	0.118397
0.000275	0.110831
0.000282	0.109056
0.000288	0.102869
0.000294	0.096135
0.000301	0.095206
0.000307	0.090220
0.000314	0.082870
0.000320	0.081213
0.000326	0.075223
0.000333	0.073804
0.000339	0.070061
0.000346	0.065607
0.000352	0.061708
0.000358	0.059878
0.000365	0.055447
0.000371	0.053787
0.000378	0.053690
0.000384	0.048343
0.000390	0.045710
0.000397	0.043007
0.000403	0.040942
0.000410	0.039317
0.000422	0.033384
0.000435	0.031132
0.000448	0.026570
0.000461	0.026019
0.000474	0.022572
0.000486	0.020809
0.000499	0.020067
0.000512	0.018335
0.000525	0.016832
0.000538	0.014839
0.000550	0.012356
0.000563	0.011424
0.000576	0.010094
0.000589	0.008569
0.000602	0.008700
0.000614	0.008087
0.000627	0.006698
0.000640	0.004992
0.000653	0.006183
0.000666	0.005226
0.000678	0.006098
0.000691	0.005261
0.000704	0.006619
0.000717	0.002181
0.000730	0.003632
0.000742	0.004366
0.000755	0.004885
0.000768	0.000713
0.000781	0.001238
0.000794	0.003956
0.000806	0.002860
0.000819	0.002207
0.000845	0.003593
0.000870	0.002163
0.000896	0.003544
0.000922	0.003808
0.000947	0.004299
0.000973	0.003099
0.000998	0.005019
0.001024	0.003969
0.001050	0.002879
0.001075	0.002486
0.001101	0.001140
0.001126	0.002964
0.001152	0.003450
0.001178	0.001142
0.001203	0.002469
0.001229	0.000780
0.001254	0.000448
0.001280	0.000767
0.001306	0.000626
0.001331	0.001490
0.001357	0.002370
0.001382	0.000265
0.001408	-0.000683
0.001434	-0.001013
0.001459	-0.000643
0.001485	-0.001799
0.001510	-0.002405
0.001536	-0.002691
0.001562	-0.001131
0.001587	-0.002202
0.001613	-0.001236
0.001638	0.000409
0.001690	0.001290
0.001741	0.004324
0.001792	0.006010
0.001843	0.006051
0.001894	0.004526
0.001946	0.005036
0.001997	0.006918
0.002048	0.005338
0.002099	0.007343
0.002150	0.006816
0.002202	0.006781
0.002253	0.006140
0.002304	0.005527
0.002355	0.006852
0.002406	0.005288
0.002458	0.002956
0.002509	0.002081
0.002560	0.002613
0.002611	0.002165
0.002662	0.002004
0.002714	0.000704
0.002765	0.002583
0.002816	0.000933
0.002867	0.000962
0.002918	0.000940
0.002970	0.003041
0.003021	0.001359
0.003072	0.002422
0.003123	-8.940588E-5
0.003174	-0.000581
0.003226	0.000532
0.003277	-0.001128
0.003379	-0.001705
0.003482	-4.585367E-5
0.003584	0.001090
0.003686	0.000884
0.003789	0.001598
0.003891	0.000237
0.003994	-0.002645
0.004096	0.001209
0.004198	0.000562
0.004301	-9.681735E-5
0.004403	0.001427
0.004506	0.003212
0.004608	0.004640
0.004710	0.003179
0.004813	0.000907
0.004915	0.000813
0.005018	-2.174692E-5
0.005120	-0.002912
0.005222	-0.003056
0.005325	0.001549
0.005427	0.003412
0.005530	0.002105
0.005632	0.001912
0.005734	0.001242
0.005837	0.001451
0.005939	7.956495E-5
0.006042	0.000672
0.006144	-0.000794
0.006246	-0.002805
0.006349	-0.003923
0.006451	-0.003142
0.006554	-0.001865
0.006758	-0.003604
0.006963	-0.000117
0.007168	0.000284
0.007373	0.000535
0.007578	-0.002454
0.007782	-0.002116
0.007987	0.002207
0.008192	0.000900
0.008397	0.001311
0.008602	-0.000640
0.008806	-0.002410
0.009011	-0.002583
0.009216	-0.000564
0.009421	0.002453
0.009626	-3.371551E-5
0.009830	0.000505
0.010035	-0.000207
0.010240	0.001740
0.010445	0.002080
0.010650	-1.257784E-5
0.010854	0.001251
0.011059	0.002297
0.011264	0.000282
0.011469	-0.001852
0.011674	-0.000521
0.011878	-0.000363
0.012083	0.003188
0.012288	0.002200
0.012493	0.003711
0.012698	0.002246
0.012902	0.002899
0.013107	0.002102
0.013517	0.003200
0.013926	-0.000245
0.014336	-0.002994
0.014746	0.003416
0.015155	-0.001757
0.015565	-0.001406
0.015974	0.000724
0.016384	0.000456
0.016794	0.004490
0.017203	0.001323
0.017613	0.000766
0.018022	-0.002284
0.018432	-0.002391
0.018842	-0.001367
0.019251	-0.000295
0.019661	-0.003060
0.020070	0.001517
0.020480	-0.000561
0.020890	0.000510
0.021299	-0.002040
0.021709	0.000198
0.022118	0.002211
0.022528	-0.000106
0.022938	-0.002214
0.023347	-0.003784
0.023757	-0.002940
0.024166	-0.002947
0.024576	0.000323
0.024986	0.001560
0.025395	0.000487
0.025805	-0.003401
0.026214	-0.000627
0.027034	-0.003284
0.027853	0.002200
0.028672	4.870800E-5
0.029491	0.001897
0.030310	0.001272
0.031130	0.001546
0.031949	-0.001196
0.032768	0.000132
0.033587	0.001696
0.034406	0.000956
0.035226	0.001747
0.036045	-0.002348
0.036864	-0.000681
0.037683	0.003690
0.038502	0.001198
0.039322	0.000687
0.040141	0.001933
0.040960	0.002479
0.041779	0.001564
0.042598	-3.400223E-5
0.043418	0.004155
0.044237	-0.001651
0.045056	-0.001542
0.045875	0.000283
0.046694	-0.001019
0.047514	-0.002359
0.048333	0.001531
0.049152	-0.000703
0.049971	-0.000481
0.050790	-0.002536
0.051610	0.000392
0.052429	0.003197
0.054067	0.002029
0.055706	-0.000342
0.057344	-0.000407
0.058982	9.081358E-5
0.060621	-0.001278
0.062259	-0.002404
0.063898	-6.471209E-6
0.065536	-0.000193
0.067174	-0.002398
0.068813	0.000788
0.070451	0.000423
0.072090	0.002267
0.073728	-0.001229
0.075366	0.000976
0.077005	0.000286
0.078643	0.001439
0.080282	0.000380
0.081920	0.000342
0.083558	0.000235
0.085197	0.000464
0.086835	-0.000910
0.088474	0.000576
0.090112	-0.000150
0.091750	-0.000514
0.093389	-0.001560
0.095027	-0.001531
0.096666	0.001552
0.098304	0.001742
0.099942	0.001628
0.101581	0.001452
0.103219	-0.000344
0.104858	-0.000130
0.108134	-0.000119
0.111411	-0.000299
0.114688	0.000429
0.117965	0.000166
0.121242	-0.001280
0.124518	0.000980
0.127795	0.000199
0.131072	-0.000777
0.134349	-0.000703
0.137626	-0.000599
0.140902	-0.001539
0.144179	0.000257
0.147456	0.000286
0.150733	0.000970
0.154010	-0.000145
0.157286	0.001477
0.160563	0.000478
0.163840	-0.000468
0.167117	0.001110
0.170394	-0.000591
0.173670	0.002962
0.176947	0.000219
0.180224	-6.262767E-5
0.183501	-0.000528
0.186778	-0.000810
0.190054	0.001211
0.193331	-0.001428
0.196608	-0.000239
0.199885	-0.000269
0.203162	0.000210
0.206438	-0.000538
0.209715	0.000406
0.216269	-0.000450
0.222822	-0.000176
0.229376	-0.000246
0.235930	-0.001145
0.242483	0.000895
0.249037	-5.816204E-6
0.255590	0.000699
0.262144	9.747503E-5
0.268698	4.382347E-5
0.275251	3.998154E-5
0.281805	0.000132
0.288358	0.000295
0.294912	0.000103
0.301466	-0.000172
0.308019	0.000933
0.314573	0.000788
0.321126	-0.000295
0.327680	0.001108
0.334234	0.001430
0.340787	0.001035
0.347341	-0.001400
0.353894	-0.000454
0.360448	-0.001131
0.367002	-0.000452
0.373555	0.001549
0.380109	1.780086E-5
0.386662	-9.075540E-5
0.393216	9.352565E-5
0.399770	-0.000774
0.406323	-0.000804
0.412877	0.000327
0.419430	-0.000283
0.432538	-0.000777
0.445645	0.000511
0.458752	0.000187
0.471859	7.570548E-5
0.484966	0.001267
0.498074	-0.000774
0.511181	-0.000251
0.524288	0.000154
0.537395	0.000165
0.550502	-0.000828
0.563610	0.000205
0.576717	0.000569
0.589824	-0.000248
0.602931	2.223484E-5
0.616038	0.001127
0.629146	-0.000447
0.642253	-0.000697
0.655360	0.000226
0.668467	4.321766E-5
0.681574	-0.000348
0.694682	-0.000597
0.707789	0.001135
0.720896	9.320163E-5
0.734003	-0.000470
0.747110	-0.000122
0.760218	0.000597
0.773325	-0.000455
0.786432	0.000188
0.799539	0.000942
0.812646	0.000159
0.825754	0.001315
0.838861	2.448687E-5
0.865075	0.000200
0.891290	0.000186
0.917504	-0.000437
0.943718	-0.000157
0.969933	0.000483
0.996147	4.364555E-5
1.022362	-0.000338
1.048576	0.000343
1.074790	0.000690
1.101005	0.000312
1.127219	0.000506
1.153434	2.340141E-5
1.179648	0.000682
1.205862	-0.000326
1.232077	0.000555
1.258291	-0.000354
1.284506	5.847657E-7
1.310720	-0.000291
1.336934	0.000572
1.363149	0.000754
1.389363	5.690882E-5
1.415578	-6.514122E-5
1.441792	0.000442
1.468006	-0.000287
1.494221	0.000425
1.520435	6.311400E-6
1.546650	0.000449
1.572864	-0.000552
1.599078	0.000298
1.625293	-0.000431
1.651507	0.000624
1.677722	-0.000382
1.730150	7.137942E-5
1.782579	3.907857E-5
1.835008	0.000254
1.887437	0.000488
1.939866	7.434444E-5
1.992294	9.818087E-5
2.044723	-0.000147
2.097152	-0.000145
2.149581	8.133606E-6
2.202010	3.740065E-7
2.254438	1.783830E-5
2.306867	-1.190261E-5
2.359296	0.000310
2.411725	-4.319402E-5
2.464154	0.000582
2.516582	-0.000354
2.569011	7.162022E-5
2.621440	-9.813310E-5
2.673869	0.000531
2.726298	0.000462
2.778726	0.000936
2.831155	0.000565
2.883584	-0.000119
2.936013	-0.000134
2.988442	-0.000153
3.040870	-0.000365
3.093299	0.000134
3.145728	0.000111
3.198157	-0.000411
3.250586	0.000292
3.303015	-0.000210
3.355443	-0.000364
3.460301	3.159634E-5
3.565158	0.000119
3.670016	0.000124
3.774873	8.837384E-5
3.879731	0.000261
3.984589	-6.121584E-5
4.089447	7.556241E-6
4.194304	-0.000160
4.299161	-0.000102
4.404019	-0.000444
4.508877	-2.720514E-5
4.613734	-4.295033E-5
4.718592	0.000440
4.823450	-0.000103
4.928307	-3.138087E-5
5.033165	-0.000205
5.138022	-2.832032E-5
5.242880	-8.567119E-5
5.347738	-2.971072E-5
5.452595	-0.000163
5.557453	0.000271
5.662311	-0.000130
5.767168	-5.140661E-5
5.872025	-0.000107
5.976883	-0.000248
6.081741	-0.000237
6.186598	-2.993246E-5
6.291456	0.000125
6.396314	0.000117
6.501171	-0.000125
6.606029	-4.469080E-6
6.710886	0.000150
6.920601	-0.000402
7.130317	-0.000193
7.340032	2.989152E-5
7.549747	2.176163E-6
7.759462	-5.161039E-5
7.969178	-0.000198
8.178893	-8.701598E-5
8.388608	-0.000230
8.598323	-0.000201
8.808039	-0.000279
9.017754	-2.916062E-5
9.227468	-0.000201
9.437184	-0.000371
9.646899	-0.000247
9.856614	-0.000437
10.066330	-4.175041E-6
10.276045	9.718825E-6
10.485760	3.474886E-7
10.695476	-0.000505
10.905190	-0.000383
11.114905	-0.000138
11.324621	-0.000173
11.534336	-4.104376E-5
11.744051	-0.000335
11.953767	-0.000335
12.163482	-0.000521
12.373197	-0.000145
12.582912	-0.000195
12.792627	-0.000204
13.002342	-0.000128
13.212058	-0.000327
13.421773	-0.000152
13.841203	-0.000295
14.260633	7.293327E-5
14.680064	2.242523E-5
15.099494	5.156459E-5
15.518925	-0.000128
15.938355	4.684151E-5
16.357786	3.395751E-5
16.777216	-0.000207
17.196646	-0.000156
17.616077	0.000343
18.035507	0.000230
18.454937	0.000176
18.874369	0.000000
19.293798	NaN
19.713228	NaN
20.132660	NaN
20.552090	NaN
20.971519	NaN
21.390951	NaN
21.810381	NaN
22.229811	NaN
22.649242	NaN
23.068672	NaN
23.488102	NaN
23.907534	NaN
24.326963	NaN
24.746393	NaN
25.165825	NaN
25.585255	NaN
26.004684	NaN
26.424116	NaN
26.843546	NaN
27.682405	NaN
28.521267	NaN
29.360128	NaN
30.198988	NaN
31.037849	NaN
31.876711	NaN
32.715572	NaN
33.554432	NaN
34.393291	NaN
35.232155	NaN
36.071014	NaN
36.909874	NaN
37.748737	NaN
38.587597	NaN
39.426456	NaN
40.265320	NaN
41.104179	NaN
41.943039	NaN
42.781902	NaN
43.620762	NaN
44.459621	NaN
45.298485	NaN
46.137344	NaN
46.976204	NaN
47.815067	NaN
48.653927	NaN
49.492786	NaN
50.331650	NaN
51.170509	NaN
52.009369	NaN
52.848232	NaN
53.687092	NaN
55.364811	NaN
57.042534	NaN
58.720257	NaN
60.397976	NaN
62.075699	NaN
63.753422	NaN
65.431145	NaN
67.108864	NaN
68.786583	NaN
70.464310	NaN
72.142029	NaN
73.819748	NaN
75.497475	NaN
77.175194	NaN
78.852913	NaN
80.530640	NaN
82.208359	NaN
83.886078	NaN
85.563805	NaN
87.241524	NaN
88.919243	NaN
90.596970	NaN
92.274689	NaN
93.952408	NaN
95.630135	NaN
97.307854	NaN
98.985573	NaN
100.663300	NaN
102.341019	NaN
104.018738	NaN
105.696465	NaN
107.374184	NaN
110.729622	NaN
114.085068	NaN
117.440514	NaN
120.795952	NaN
124.151398	NaN
127.506844	NaN
130.862289	NaN
134.217728	NaN
137.573166	NaN
140.928619	NaN
144.284058	NaN
147.639496	NaN
150.994949	NaN
154.350388	NaN
157.705826	NaN
161.061279	NaN
164.416718	NaN
167.772156	NaN
171.127609	NaN
174.483047	NaN
177.838486	NaN
181.193939	NaN
184.549377	NaN
187.904816	NaN
191.260269	NaN
194.615707	NaN
197.971146	NaN
201.326599	NaN
204.682037	NaN
208.037476	NaN
211.392929	NaN
214.748367	NaN
221.459244	NaN
228.170135	NaN
234.881027	NaN
241.591904	NaN
248.302795	NaN
255.013687	NaN
261.724579	NaN
268.435455	NaN
275.146332	NaN
281.857239	NaN
288.568115	NaN
295.278992	NaN
301.989899	NaN
308.700775	NaN
315.411652	NaN
322.122559	NaN
328.833435	NaN
335.544312	NaN
342.255219	NaN
348.966095	NaN
355.676971	NaN
362.387878	NaN
369.098755	NaN
375.809631	NaN
382.520538	NaN
389.231415	NaN
395.942291	NaN
402.653198	NaN
409.364075	NaN
416.074951	NaN
422.785858	NaN
429.496735	NaN
442.918488	NaN
456.340271	NaN
469.762054	NaN
483.183807	NaN
496.605591	NaN
510.027374	NaN
523.449158	NaN
536.870911	NaN
550.292664	NaN
563.714478	NaN
577.136230	NaN
590.557983	NaN
603.979797	NaN
617.401550	NaN
630.823303	NaN
644.245117	NaN
657.666870	NaN
671.088623	NaN
684.510437	NaN
697.932190	NaN
711.353943	NaN
724.775757	NaN
738.197510	NaN
751.619263	NaN
765.041077	NaN
778.462830	NaN
791.884583	NaN
805.306396	NaN
818.728149	NaN
832.149902	NaN
845.571716	NaN
858.993469	NaN
885.836975	NaN
912.680542	NaN
939.524109	NaN
966.367615	NaN
993.211182	NaN
1020.054749	NaN
1046.898315	NaN
1073.741821	NaN
1100.585327	NaN
1127.428955	NaN
1154.272461	NaN
1181.115967	NaN
1207.959595	NaN
1234.803101	NaN
1261.646606	NaN
1288.490234	NaN
1315.333740	NaN
1342.177246	NaN
1369.020874	NaN
1395.864380	NaN
1422.707886	NaN
1449.551514	NaN
1476.395020	NaN
1503.238525	NaN
1530.082153	NaN
1556.925659	NaN
1583.769165	NaN
1610.612793	NaN
1637.456299	NaN
1664.299805	NaN
1691.143433	NaN
1717.986938	NaN
1771.673950	NaN
1825.361084	NaN
1879.048218	NaN
1932.735229	NaN
1986.422363	NaN
2040.109497	NaN
2093.796631	NaN
2147.483643	NaN
2201.170654	NaN
2254.857910	NaN
2308.544922	NaN
2362.231934	NaN
2415.919189	NaN
2469.606201	NaN
2523.293213	NaN
2576.980469	NaN
2630.667480	NaN
2684.354492	NaN
2738.041748	NaN
2791.728760	NaN
2845.415771	NaN
2899.103027	NaN
2952.790039	NaN
3006.477051	NaN
3060.164307	NaN
3113.851318	NaN
3167.538330	NaN
3221.225586	NaN
3274.912598	NaN
3328.599609	NaN
3382.286865	NaN
3435.973877	NaN
0.000000	NaN
0.000000	NaN
0.000000	NaN
0.000000	NaN
0.000000	NaN
0.000000	NaN
0.000000	NaN
0.000000	NaN
0.000000	NaN
0.000000	NaN
0.000000	NaN
0.000000	NaN
0.000000	NaN
0.000000	NaN
0.000000	NaN
0.000000	NaN
0.000000	NaN
0.000000	NaN
0.000000	NaN
0.000000	NaN
0.000000	NaN
0.000000	NaN
0.000000	NaN
0.000000	NaN
0.000000	NaN
0.000000	NaN
0.000000	NaN
0.000000	NaN
0.000000	NaN
0.000000	NaN
0.000000	NaN
0.000000	NaN

Count Rate History (KHz)  CR CHA / CR CHB
0.000000	55.217743	52.661896
0.104858	54.168701	48.980713
0.209715	59.127808	55.990219
0.314573	53.482056	50.745010
0.419430	58.679581	56.161880
0.524288	55.618286	53.033829
0.629146	52.232742	46.491623
0.734003	51.259995	47.740936
0.838861	53.138733	51.527023
0.943718	58.355331	54.636002
1.048576	53.300858	49.982071
1.153434	49.114227	45.328140
1.258291	53.138733	50.334930
1.363149	53.091049	50.153732
1.468006	52.518845	50.153732
1.572864	54.731369	50.621033
1.677722	57.001114	54.817200
1.782579	55.885315	51.431656
1.887437	53.529739	49.448013
1.992294	51.841736	49.371719
2.097152	51.774979	49.266815
2.202010	53.558350	51.784515
2.306867	53.787231	51.431656
2.411725	57.954788	55.055618
2.516582	54.588318	51.012039
2.621440	53.672791	50.764084
2.726298	52.080154	48.847198
2.831155	57.325363	53.606033
2.936013	53.396225	48.789978
3.040870	54.140091	50.354004
3.145728	52.757263	47.607422
3.250586	56.390762	52.232742
3.355443	54.130554	50.687790
3.460301	56.505203	52.890778
3.565158	51.593781	49.753189
3.670016	58.164597	54.330826
3.774874	51.021576	48.961639
3.879731	52.757263	46.491623
3.984589	50.163269	46.920776
4.089446	55.179596	52.776337
4.194304	53.730011	49.991608
4.299162	52.604675	49.009323
4.404019	49.762726	47.521591
4.508877	56.629181	54.187775
4.613734	49.562454	45.804977
4.718592	52.490234	50.191879
4.823450	50.430298	46.043396
4.928307	53.615570	48.580170
5.033165	54.740906	49.819946
5.138022	53.339005	49.505234
5.242880	57.849884	53.777695
5.347738	54.740906	51.164627
5.452595	46.606064	42.676926
5.557453	53.663254	51.708221
5.662310	50.544739	47.349930
5.767168	51.183701	47.464371
5.872026	51.212311	48.551559
5.976883	50.420761	47.283173
6.081741	52.957535	50.191879
6.186598	55.160522	51.546097
6.291456	54.340363	51.355362
6.396314	54.817200	52.633286
6.501171	51.603317	48.494339
6.606029	49.953461	49.400330
6.710886	51.956177	48.122406
6.815744	48.704147	43.745041
6.920602	52.547455	50.249100
7.025459	50.239563	45.900345
7.130317	55.084229	51.813126
7.235174	52.537918	49.819946
7.340032	53.749084	49.047470
7.444890	52.204132	48.255920
7.549747	55.351257	51.431656
7.654605	54.435730	52.061081
7.759462	53.653717	49.791336
7.864320	49.610138	46.806335
7.969178	56.276321	51.937103
8.074035	52.776337	51.851273
8.178893	55.170059	50.392151
8.283750	53.472519	48.789978
8.388608	53.033829	50.582886
8.493466	51.736832	48.265457
8.598323	47.769547	43.640137
8.703181	49.428940	48.017502
8.808038	50.182343	45.614243
8.912896	52.900314	51.040649
9.017754	54.273605	51.460266
9.122611	55.360794	52.213669
9.227469	51.612854	47.550201
9.332326	52.423477	48.475266
9.437184	49.562454	48.971176
9.542042	50.201416	46.930313
9.646899	49.772263	46.653748
9.751757	52.747726	50.125122
9.856614	52.213669	49.943924
9.961472	54.473877	50.907135
10.066330	54.321289	50.182343
10.171187	48.246384	46.262741
10.276045	53.682327	51.546097
10.380902	54.454803	51.374435
10.485760	55.618286	53.148270
10.590618	48.303604	44.889450
10.695475	52.032471	46.958923
10.800333	56.438446	52.967072
10.905190	56.686401	53.806305
11.010048	55.818558	52.299500
11.114906	55.446625	49.867630
11.219763	51.708221	47.416687
11.324621	52.528381	47.693253
11.429478	54.941177	51.889420
11.534336	53.215027	49.276352
11.639194	56.562424	53.005219
11.744051	53.167343	49.972534
11.848909	53.644180	50.907135
11.953766	53.100586	48.980713
12.058624	52.671432	50.277710
12.163482	49.829483	45.137405
12.268339	50.306320	46.787262
12.373197	49.657822	45.957565
12.478054	54.998398	51.612854
12.582912	54.082870	49.238205
12.687770	54.769516	52.719116
12.792627	53.396225	49.991608
12.897485	53.215027	51.908493
13.002342	52.652359	48.542023
13.107200	53.024292	51.317215
13.212058	56.676865	52.642822
13.316915	51.269531	47.941208
13.421773	53.377151	47.903061
13.526630	54.645538	50.821304
13.631488	51.040649	47.616959
13.736346	51.908493	49.791336
13.841203	55.665970	52.080154
13.946061	55.274963	49.819946
14.050918	54.130554	52.661896
14.155776	49.905777	46.710968
14.260634	53.625107	49.743652
14.365491	56.238174	53.129196
14.470349	51.412582	48.904419
14.575206	53.462982	50.640106
14.680064	50.458908	47.626495
14.784922	52.175522	47.569275
14.889779	53.195953	51.078796
14.994637	53.920746	49.486160
15.099494	52.947998	49.896240
15.204352	53.710937	49.009323
15.309210	52.509308	48.580170
15.414067	60.873032	57.773590
15.518925	56.800842	52.547455
15.623782	52.833557	48.713684
15.728640	51.517487	49.791336
15.833498	51.927567	48.274994
15.938355	53.081512	49.247742
16.043213	50.525665	48.942566
16.148070	53.758621	50.859451
16.252928	53.882599	50.077438
16.357786	55.351257	53.367615
16.462643	51.898956	51.097870
16.567501	55.475235	52.394867
16.672358	56.324005	55.398941
16.777216	55.112839	52.404404
16.882074	53.596497	48.837662
16.986931	54.998398	51.164627
17.091789	50.668716	48.618317
17.196646	55.828094	52.251816
17.301504	54.111481	50.554276
17.406362	55.236816	53.129196
17.511219	49.257278	46.510696
17.616077	57.106018	55.122375
17.720934	57.258606	55.274963
17.825792	58.841705	54.340363
17.930650	52.595139	48.770905
18.035507	57.201385	54.893494
18.140365	56.495667	56.390762
18.245222	55.780411	50.973892
18.350080	51.403046	46.138763
18.454938	52.318573	49.304962
18.559795	52.080154	49.238205
18.664653	58.984756	56.028366
18.769510	55.828094	52.680969
18.874368	51.450729	46.262741
18.979226	52.518845	49.772263
19.084083	57.182312	55.360794
19.188941	51.918030	48.055649
19.293798	58.469772	54.044724
19.398656	56.285858	53.424835
19.503514	53.386688	50.992966
19.608371	57.153702	52.547455
19.713229	48.713684	45.652390
