1/9/2026	1:28 PM
Pseudo Cross Correlation
Scattering angle:	80.0
Duration (s):	20
Wavelength (nm):	632.8
Refractive index:	1.330
Viscosity (mPas):	0.712
Temperature (K):	308.7
Laser intensity (mW):	2.650399
Average Count rate  A (kHz):	47.6
Average Count rate  B (kHz):	44.8
Intercept:	0.8450
Cumulant 1st	56.27
Cumulant 2nd	53.23	12.99
Cumulant 3rd	55.45	13.80

Lag time (s)         g2-1
1.250000E-8	0.865553
2.500000E-8	0.840907
3.750000E-8	0.895887
5.000000E-8	0.850386
6.250000E-8	0.912951
7.500000E-8	0.804885
8.750000E-8	0.867449
1.000000E-7	0.780238
1.125000E-7	0.880720
1.250000E-7	0.793510
1.375000E-7	0.859866
1.500000E-7	0.816260
1.625000E-7	0.820052
1.750000E-7	0.772655
1.875000E-7	0.897783
2.000000E-7	0.878825
2.125000E-7	0.753696
2.250000E-7	0.835219
2.375000E-7	0.802989
2.500000E-7	0.814364
2.625000E-7	0.909159
2.750000E-7	0.823844
2.875000E-7	0.865553
3.000000E-7	0.823844
3.125000E-7	0.780238
3.250000E-7	0.730945
3.375000E-7	0.943285
3.500000E-7	0.893992
3.625000E-7	0.960348
3.750000E-7	0.795406
3.875000E-7	0.831427
4.000000E-7	0.821948
4.125000E-7	0.820052
4.250000E-7	0.865553
4.375000E-7	0.765071
4.500000E-7	0.854178
4.625000E-7	0.907263
4.750000E-7	0.787822
4.875000E-7	0.812468
5.000000E-7	0.821948
5.125000E-7	0.791614
5.250000E-7	0.897783
5.375000E-7	0.850386
5.500000E-7	0.907263
5.625000E-7	0.861762
5.750000E-7	0.776447
5.875000E-7	0.833323
6.000000E-7	0.782134
6.125000E-7	0.859866
6.250000E-7	0.808677
6.375000E-7	0.821948
6.500000E-7	0.901575
6.625000E-7	0.784030
6.750000E-7	0.905367
6.875000E-7	0.802989
7.000000E-7	0.787822
7.125000E-7	0.778342
7.250000E-7	0.744217
7.375000E-7	0.717674
7.500000E-7	0.884512
7.625000E-7	0.827636
7.750000E-7	0.806781
7.875000E-7	0.821948
8.000000E-7	0.907263
8.250000E-7	0.850386
8.500000E-7	0.800145
8.750000E-7	0.937597
9.000000E-7	0.746112
9.250000E-7	0.872189
9.500000E-7	0.856074
9.750000E-7	0.835219
1.000000E-6	0.855126
1.025000E-6	0.822896
1.050000E-6	0.792562
1.075000E-6	0.867449
1.100000E-6	0.884512
1.125000E-6	0.871241
1.150000E-6	0.879772
1.175000E-6	0.879772
1.200000E-6	0.930013
1.225000E-6	0.838063
1.250000E-6	0.882616
1.275000E-6	0.888304
1.300000E-6	0.782134
1.325000E-6	0.857022
1.350000E-6	0.884512
1.375000E-6	0.847542
1.400000E-6	0.804885
1.425000E-6	0.898731
1.450000E-6	0.757488
1.475000E-6	0.824792
1.500000E-6	0.908211
1.525000E-6	0.879772
1.550000E-6	0.893044
1.575000E-6	0.860814
1.600000E-6	0.883564
1.650000E-6	0.757014
1.700000E-6	0.846120
1.750000E-6	0.851334
1.800000E-6	0.863183
1.850000E-6	0.832375
1.900000E-6	0.865553
1.950000E-6	0.815312
2.000000E-6	0.791140
2.050000E-6	0.821948
2.100000E-6	0.820052
2.150000E-6	0.846120
2.200000E-6	0.827636
2.250000E-6	0.886408
2.300000E-6	0.844699
2.350000E-6	0.835219
2.400000E-6	0.822422
2.450000E-6	0.867449
2.500000E-6	0.841855
2.550000E-6	0.863183
2.600000E-6	0.821000
2.650000E-6	0.833323
2.700000E-6	0.822896
2.750000E-6	0.857496
2.800000E-6	0.846120
2.850000E-6	0.875033
2.900000E-6	0.829531
2.950000E-6	0.830005
3.000000E-6	0.844699
3.050000E-6	0.881194
3.100000E-6	0.807729
3.150000E-6	0.885934
3.200000E-6	0.925748
3.300000E-6	0.855363
3.400000E-6	0.822659
3.500000E-6	0.855363
3.600000E-6	0.824555
3.700000E-6	0.822422
3.800000E-6	0.856548
3.900000E-6	0.829294
4.000000E-6	0.824555
4.100000E-6	0.827399
4.200000E-6	0.835693
4.300000E-6	0.793036
4.400000E-6	0.828584
4.500000E-6	0.846120
4.600000E-6	0.848727
4.700000E-6	0.789244
4.800000E-6	0.840433
4.900000E-6	0.799434
5.000000E-6	0.834271
5.100000E-6	0.837826
5.200000E-6	0.839248
5.300000E-6	0.832138
5.400000E-6	0.831190
5.500000E-6	0.825029
5.600000E-6	0.845410
5.700000E-6	0.798960
5.800000E-6	0.855363
5.900000E-6	0.840907
6.000000E-6	0.844225
6.100000E-6	0.834271
6.200000E-6	0.815075
6.300000E-6	0.815549
6.400000E-6	0.841855
6.600000E-6	0.813653
6.800000E-6	0.827636
7.000000E-6	0.811165
7.200000E-6	0.844699
7.400000E-6	0.830716
7.600000E-6	0.837707
7.800000E-6	0.785926
8.000000E-6	0.842684
8.200000E-6	0.808084
8.400000E-6	0.809269
8.600000E-6	0.811994
8.800000E-6	0.815075
9.000000E-6	0.790547
9.200000E-6	0.827162
9.400000E-6	0.831901
9.600000E-6	0.823725
9.800000E-6	0.835101
1.000000E-5	0.806307
1.020000E-5	0.845647
1.040000E-5	0.811284
1.060000E-5	0.812113
1.080000E-5	0.805477
1.100000E-5	0.814720
1.120000E-5	0.822659
1.140000E-5	0.801686
1.160000E-5	0.813298
1.180000E-5	0.817208
1.200000E-5	0.803937
1.220000E-5	0.806899
1.240000E-5	0.821118
1.260000E-5	0.835693
1.280000E-5	0.818512
1.320000E-5	0.837648
1.360000E-5	0.804944
1.400000E-5	0.826332
1.440000E-5	0.806722
1.480000E-5	0.809921
1.520000E-5	0.795761
1.560000E-5	0.794221
1.600000E-5	0.803285
1.640000E-5	0.779231
1.680000E-5	0.795879
1.720000E-5	0.801152
1.760000E-5	0.793510
1.800000E-5	0.796176
1.840000E-5	0.779527
1.880000E-5	0.775380
1.920000E-5	0.799849
1.960000E-5	0.783615
2.000000E-5	0.787585
2.040000E-5	0.795228
2.080000E-5	0.780238
2.120000E-5	0.779409
2.160000E-5	0.784326
2.200000E-5	0.784030
2.240000E-5	0.772122
2.280000E-5	0.786815
2.320000E-5	0.781483
2.360000E-5	0.791495
2.400000E-5	0.771114
2.440000E-5	0.796176
2.480000E-5	0.768389
2.520000E-5	0.781957
2.560000E-5	0.778876
2.640000E-5	0.771026
2.720000E-5	0.765575
2.800000E-5	0.760124
2.880000E-5	0.759354
2.960000E-5	0.759384
3.040000E-5	0.765782
3.120000E-5	0.771973
3.200000E-5	0.760154
3.280000E-5	0.745253
3.360000E-5	0.752363
3.440000E-5	0.754051
3.520000E-5	0.743032
3.600000E-5	0.747327
3.680000E-5	0.753933
3.760000E-5	0.753281
3.840000E-5	0.737166
3.920000E-5	0.735507
4.000000E-5	0.743357
4.080000E-5	0.744187
4.160000E-5	0.724162
4.240000E-5	0.736514
4.320000E-5	0.742350
4.400000E-5	0.735181
4.480000E-5	0.733315
4.560000E-5	0.722088
4.640000E-5	0.714001
4.720000E-5	0.701826
4.800000E-5	0.731686
4.880000E-5	0.718355
4.960000E-5	0.722917
5.040000E-5	0.720103
5.120000E-5	0.721851
5.280000E-5	0.700760
5.440000E-5	0.699620
5.600000E-5	0.702995
5.760000E-5	0.703173
5.920000E-5	0.699485
6.080000E-5	0.690922
6.240000E-5	0.683783
6.400000E-5	0.682657
6.560000E-5	0.674363
6.720000E-5	0.662897
6.880000E-5	0.675694
7.040000E-5	0.682196
7.200000E-5	0.657357
7.360000E-5	0.662897
7.520000E-5	0.659727
7.680000E-5	0.650099
7.840000E-5	0.651029
8.000000E-5	0.649548
8.160000E-5	0.648689
8.320000E-5	0.643564
8.480000E-5	0.625686
8.640000E-5	0.637950
8.800000E-5	0.634277
8.960000E-5	0.626205
9.120000E-5	0.615659
9.280000E-5	0.613096
9.440000E-5	0.614931
9.600000E-5	0.620101
9.760000E-5	0.609199
9.920000E-5	0.610058
0.000101	0.602608
0.000102	0.597143
0.000106	0.595418
0.000109	0.587093
0.000112	0.584597
0.000115	0.576910
0.000118	0.566001
0.000122	0.559654
0.000125	0.557292
0.000128	0.546116
0.000131	0.539784
0.000134	0.538494
0.000138	0.539635
0.000141	0.527311
0.000144	0.512892
0.000147	0.516802
0.000150	0.508329
0.000154	0.504396
0.000157	0.498337
0.000160	0.494723
0.000163	0.492449
0.000166	0.482496
0.000170	0.478178
0.000173	0.476635
0.000176	0.465933
0.000179	0.466326
0.000182	0.463682
0.000186	0.452655
0.000189	0.445390
0.000192	0.442894
0.000195	0.441122
0.000198	0.441943
0.000202	0.428538
0.000205	0.429501
0.000211	0.417858
0.000218	0.403859
0.000224	0.399634
0.000230	0.392320
0.000237	0.381552
0.000243	0.373797
0.000250	0.362968
0.000256	0.361591
0.000262	0.352445
0.000269	0.346068
0.000275	0.336560
0.000282	0.330980
0.000288	0.321682
0.000294	0.312279
0.000301	0.308423
0.000307	0.300765
0.000314	0.295052
0.000320	0.290495
0.000326	0.284052
0.000333	0.279498
0.000339	0.272418
0.000346	0.265696
0.000352	0.259548
0.000358	0.255193
0.000365	0.249483
0.000371	0.240870
0.000378	0.236476
0.000384	0.238131
0.000390	0.226863
0.000397	0.221878
0.000403	0.214111
0.000410	0.219084
0.000422	0.209084
0.000435	0.199645
0.000448	0.193477
0.000461	0.186269
0.000474	0.178872
0.000486	0.171525
0.000499	0.166202
0.000512	0.158724
0.000525	0.154229
0.000538	0.144206
0.000550	0.144980
0.000563	0.136627
0.000576	0.129250
0.000589	0.126714
0.000602	0.119099
0.000614	0.117028
0.000627	0.112465
0.000640	0.107009
0.000653	0.106603
0.000666	0.099625
0.000678	0.097673
0.000691	0.093389
0.000704	0.091206
0.000717	0.086576
0.000730	0.083085
0.000742	0.081426
0.000755	0.078852
0.000768	0.074718
0.000781	0.072689
0.000794	0.072879
0.000806	0.068043
0.000819	0.065682
0.000845	0.062748
0.000870	0.058911
0.000896	0.054827
0.000922	0.052347
0.000947	0.049433
0.000973	0.047132
0.000998	0.043742
0.001024	0.040860
0.001050	0.038896
0.001075	0.036260
0.001101	0.033958
0.001126	0.032856
0.001152	0.029938
0.001178	0.026402
0.001203	0.028028
0.001229	0.024764
0.001254	0.022432
0.001280	0.019939
0.001306	0.018027
0.001331	0.017494
0.001357	0.016235
0.001382	0.014493
0.001408	0.016152
0.001434	0.014312
0.001459	0.015652
0.001485	0.015689
0.001510	0.014073
0.001536	0.014255
0.001562	0.013373
0.001587	0.012796
0.001613	0.013427
0.001638	0.012178
0.001690	0.013134
0.001741	0.008452
0.001792	0.008076
0.001843	0.010113
0.001894	0.010021
0.001946	0.009319
0.001997	0.007246
0.002048	0.008207
0.002099	0.009481
0.002150	0.010259
0.002202	0.008326
0.002253	0.008196
0.002304	0.007318
0.002355	0.007417
0.002406	0.007797
0.002458	0.009546
0.002509	0.010849
0.002560	0.008808
0.002611	0.007988
0.002662	0.008819
0.002714	0.009229
0.002765	0.010298
0.002816	0.007570
0.002867	0.007392
0.002918	0.005325
0.002970	0.004189
0.003021	0.003664
0.003072	0.005665
0.003123	0.009290
0.003174	0.008338
0.003226	0.009876
0.003277	0.008635
0.003379	0.008757
0.003482	0.007929
0.003584	0.008232
0.003686	0.009649
0.003789	0.009324
0.003891	0.009058
0.003994	0.007450
0.004096	0.005713
0.004198	0.001534
0.004301	-0.000957
0.004403	-0.000775
0.004506	-0.000411
0.004608	0.000735
0.004710	0.001160
0.004813	0.001475
0.004915	0.003037
0.005018	0.004941
0.005120	0.009242
0.005222	0.009015
0.005325	0.005395
0.005427	0.003543
0.005530	0.004793
0.005632	0.006382
0.005734	0.007986
0.005837	0.008523
0.005939	0.008463
0.006042	0.005930
0.006144	0.000998
0.006246	-0.000355
0.006349	-0.001962
0.006451	-0.002473
0.006554	0.001696
0.006758	0.002384
0.006963	0.006747
0.007168	0.006704
0.007373	0.005690
0.007578	0.004609
0.007782	0.002737
0.007987	0.004615
0.008192	0.005946
0.008397	0.007482
0.008602	0.008743
0.008806	0.008755
0.009011	0.006931
0.009216	0.006862
0.009421	0.002222
0.009626	0.000672
0.009830	-0.000341
0.010035	-0.000489
0.010240	-0.000341
0.010445	0.000851
0.010650	-0.000219
0.010854	-0.001190
0.011059	-0.001085
0.011264	-0.000209
0.011469	-0.001215
0.011674	-0.002509
0.011878	0.001774
0.012083	0.003643
0.012288	0.006566
0.012493	0.005596
0.012698	0.003426
0.012902	0.003248
0.013107	0.002772
0.013517	0.003594
0.013926	0.001720
0.014336	-0.001746
0.014746	-0.001563
0.015155	0.001259
0.015565	0.004813
0.015974	0.001923
0.016384	-0.001488
0.016794	-0.001697
0.017203	0.004268
0.017613	0.005905
0.018022	0.005072
0.018432	-0.000728
0.018842	-0.003634
0.019251	-0.004903
0.019661	-0.001803
0.020070	-0.003014
0.020480	-0.003685
0.020890	-0.000991
0.021299	0.000881
0.021709	0.004524
0.022118	0.004775
0.022528	-0.000386
0.022938	-0.001934
0.023347	0.000293
0.023757	0.002341
0.024166	0.004390
0.024576	0.003014
0.024986	-0.003522
0.025395	-0.003612
0.025805	-0.003106
0.026214	-0.000841
0.027034	0.002236
0.027853	0.001692
0.028672	-0.002923
0.029491	-0.001045
0.030310	0.000335
0.031130	-0.002162
0.031949	0.001621
0.032768	0.001030
0.033587	0.000292
0.034406	0.004519
0.035226	0.008574
0.036045	0.001227
0.036864	0.001142
0.037683	0.003509
0.038502	0.002195
0.039322	-9.207302E-5
0.040141	-0.000879
0.040960	-0.000369
0.041779	0.003608
0.042598	0.004911
0.043418	0.002937
0.044237	0.000214
0.045056	0.000408
0.045875	0.005181
0.046694	0.001654
0.047514	0.002056
0.048333	-0.001674
0.049152	0.001460
0.049971	0.002754
0.050790	-0.003265
0.051610	0.002520
0.052429	0.003056
0.054067	-0.002697
0.055706	0.000969
0.057344	0.002604
0.058982	0.004453
0.060621	0.005769
0.062259	0.006962
0.063898	0.001357
0.065536	0.000872
0.067174	0.006794
0.068813	0.003685
0.070451	0.007207
0.072090	0.004660
0.073728	0.002826
0.075366	0.001677
0.077005	-4.225500E-6
0.078643	0.003158
0.080282	-0.002170
0.081920	-0.001572
0.083558	-0.002593
0.085197	0.000258
0.086835	-0.002160
0.088474	-0.001473
0.090112	-0.000714
0.091750	0.001284
0.093389	0.003307
0.095027	0.005533
0.096666	0.005179
0.098304	0.003326
0.099942	-0.000185
0.101581	0.004508
0.103219	0.003319
0.104858	4.501372E-5
0.108134	-0.003420
0.111411	-0.001801
0.114688	0.001604
0.117965	-9.243879E-6
0.121242	-0.000384
0.124518	-0.001815
0.127795	-0.002579
0.131072	0.000691
0.134349	0.002524
0.137626	-0.003229
0.140902	0.001686
0.144179	0.000472
0.147456	0.001705
0.150733	0.002282
0.154010	0.000461
0.157286	0.002154
0.160563	0.001328
0.163840	0.000637
0.167117	-0.000628
0.170394	0.001191
0.173670	0.002395
0.176947	0.001460
0.180224	-0.002962
0.183501	0.001416
0.186778	-0.004484
0.190054	0.000295
0.193331	0.001796
0.196608	-0.000846
0.199885	0.002384
0.203162	0.001815
0.206438	0.001675
0.209715	-0.000970
0.216269	0.001185
0.222822	-0.000940
0.229376	-0.003129
0.235930	0.003110
0.242483	0.000687
0.249037	-6.549496E-5
0.255590	-0.001885
0.262144	-0.001951
0.268698	-0.001797
0.275251	-0.000931
0.281805	0.002226
0.288358	0.000741
0.294912	-0.001846
0.301466	-0.002031
0.308019	0.001537
0.314573	-0.000404
0.321126	-0.000572
0.327680	-0.000263
0.334234	-0.001458
0.340787	-0.000931
0.347341	-0.002244
0.353894	-0.001733
0.360448	0.002327
0.367002	-0.000750
0.373555	-0.001137
0.380109	0.002540
0.386662	-0.001237
0.393216	-0.001320
0.399770	-0.002308
0.406323	-0.002902
0.412877	-0.000534
0.419430	-0.000755
0.432538	0.000226
0.445645	-0.000600
0.458752	-0.000538
0.471859	-0.001980
0.484966	0.000939
0.498074	-0.000850
0.511181	-0.000942
0.524288	-0.000111
0.537395	0.000372
0.550502	0.001094
0.563610	0.001016
0.576717	0.000785
0.589824	-0.000221
0.602931	0.002155
0.616038	-0.001524
0.629146	-0.000736
0.642253	0.001296
0.655360	-0.000126
0.668467	-0.003781
0.681574	0.001118
0.694682	-0.001495
0.707789	-0.001831
0.720896	-0.000833
0.734003	0.000408
0.747110	-0.000929
0.760218	0.000113
0.773325	-0.000173
0.786432	0.001296
0.799539	0.000129
0.812646	0.000873
0.825754	-0.000481
0.838861	8.509819E-5
0.865075	0.001188
0.891290	0.000198
0.917504	0.000331
0.943718	0.000381
0.969933	0.000728
0.996147	0.000433
1.022362	-0.000127
1.048576	-0.000934
1.074790	-0.000966
1.101005	-0.001739
1.127219	-0.001010
1.153434	-0.000858
1.179648	0.000701
1.205862	-0.000378
1.232077	-0.000129
1.258291	-0.000453
1.284506	-0.001201
1.310720	-0.001409
1.336934	0.000265
1.363149	-8.676520E-5
1.389363	0.000581
1.415578	-0.000132
1.441792	0.000166
1.468006	0.000878
1.494221	-0.000652
1.520435	0.000675
1.546650	0.001475
1.572864	0.000287
1.599078	-0.000423
1.625293	0.000650
1.651507	-0.000565
1.677722	-1.107246E-5
1.730150	-0.000278
1.782579	0.000276
1.835008	0.000224
1.887437	0.000536
1.939866	-0.000634
1.992294	0.000779
2.044723	0.000392
2.097152	0.000281
2.149581	-0.000446
2.202010	7.220798E-5
2.254438	-0.000462
2.306867	-0.000398
2.359296	-0.000715
2.411725	-0.000287
2.464154	-0.000977
2.516582	-0.000197
2.569011	-0.000339
2.621440	-0.000223
2.673869	0.000199
2.726298	0.000322
2.778726	-0.000835
2.831155	-6.877826E-5
2.883584	0.000704
2.936013	0.001157
2.988442	-0.000270
3.040870	0.000186
3.093299	-0.000166
3.145728	0.001087
3.198157	0.001900
3.250586	0.001841
3.303015	0.000738
3.355443	0.000850
3.460301	6.017545E-5
3.565158	-0.000501
3.670016	0.000156
3.774873	0.000388
3.879731	-0.000499
3.984589	-0.000308
4.089447	0.000555
4.194304	0.000433
4.299161	-0.000495
4.404019	-0.000349
4.508877	-0.000787
4.613734	-0.000652
4.718592	8.689559E-5
4.823450	0.000267
4.928307	0.000477
5.033165	-0.000465
5.138022	-0.000464
5.242880	-0.000738
5.347738	-0.000620
5.452595	-3.117262E-5
5.557453	-0.000541
5.662311	0.000470
5.767168	0.000966
5.872025	0.000546
5.976883	-0.000481
6.081741	5.226487E-5
6.186598	8.500498E-5
6.291456	0.000437
6.396314	8.672832E-6
6.501171	-0.000788
6.606029	-0.000327
6.710886	4.730377E-5
6.920601	0.000636
7.130317	0.000279
7.340032	-0.000269
7.549747	0.000421
7.759462	0.000794
7.969178	-0.000783
8.178893	-0.000874
8.388608	-0.001273
8.598323	-0.000856
8.808039	-7.611485E-5
9.017754	0.000263
9.227468	0.000521
9.437184	-6.289413E-5
9.646899	0.000564
9.856614	0.000262
10.066330	-0.000124
10.276045	-0.000651
10.485760	-0.000733
10.695476	0.000450
10.905190	0.001058
11.114905	-0.000891
11.324621	-0.000621
11.534336	-0.000454
11.744051	-0.000237
11.953767	-0.000373
12.163482	-0.001499
12.373197	0.000146
12.582912	6.428880E-5
12.792627	0.000144
13.002342	0.000244
13.212058	0.001560
13.421773	0.000300
13.841203	-0.000993
14.260633	-0.000218
14.680064	0.000263
15.099494	-4.578710E-5
15.518925	-0.000934
15.938355	0.000602
16.357786	0.000920
16.777216	0.000757
17.196646	-0.000942
17.616077	0.000409
18.035507	0.000933
18.454937	-0.001432
18.874369	0.000000
19.293798	NaN
19.713228	NaN
20.132660	NaN
20.552090	NaN
20.971519	NaN
21.390951	NaN
21.810381	NaN
22.229811	NaN
22.649242	NaN
23.068672	NaN
23.488102	NaN
23.907534	NaN
24.326963	NaN
24.746393	NaN
25.165825	NaN
25.585255	NaN
26.004684	NaN
26.424116	NaN
26.843546	NaN
27.682405	NaN
28.521267	NaN
29.360128	NaN
30.198988	NaN
31.037849	NaN
31.876711	NaN
32.715572	NaN
33.554432	NaN
34.393291	NaN
35.232155	NaN
36.071014	NaN
36.909874	NaN
37.748737	NaN
38.587597	NaN
39.426456	NaN
40.265320	NaN
41.104179	NaN
41.943039	NaN
42.781902	NaN
43.620762	NaN
44.459621	NaN
45.298485	NaN
46.137344	NaN
46.976204	NaN
47.815067	NaN
48.653927	NaN
49.492786	NaN
50.331650	NaN
51.170509	NaN
52.009369	NaN
52.848232	NaN
53.687092	NaN
55.364811	NaN
57.042534	NaN
58.720257	NaN
60.397976	NaN
62.075699	NaN
63.753422	NaN
65.431145	NaN
67.108864	NaN
68.786583	NaN
70.464310	NaN
72.142029	NaN
73.819748	NaN
75.497475	NaN
77.175194	NaN
78.852913	NaN
80.530640	NaN
82.208359	NaN
83.886078	NaN
85.563805	NaN
87.241524	NaN
88.919243	NaN
90.596970	NaN
92.274689	NaN
93.952408	NaN
95.630135	NaN
97.307854	NaN
98.985573	NaN
100.663300	NaN
102.341019	NaN
104.018738	NaN
105.696465	NaN
107.374184	NaN
110.729622	NaN
114.085068	NaN
117.440514	NaN
120.795952	NaN
124.151398	NaN
127.506844	NaN
130.862289	NaN
134.217728	NaN
137.573166	NaN
140.928619	NaN
144.284058	NaN
147.639496	NaN
150.994949	NaN
154.350388	NaN
157.705826	NaN
161.061279	NaN
164.416718	NaN
167.772156	NaN
171.127609	NaN
174.483047	NaN
177.838486	NaN
181.193939	NaN
184.549377	NaN
187.904816	NaN
191.260269	NaN
194.615707	NaN
197.971146	NaN
201.326599	NaN
204.682037	NaN
208.037476	NaN
211.392929	NaN
214.748367	NaN
221.459244	NaN
228.170135	NaN
234.881027	NaN
241.591904	NaN
248.302795	NaN
255.013687	NaN
261.724579	NaN
268.435455	NaN
275.146332	NaN
281.857239	NaN
288.568115	NaN
295.278992	NaN
301.989899	NaN
308.700775	NaN
315.411652	NaN
322.122559	NaN
328.833435	NaN
335.544312	NaN
342.255219	NaN
348.966095	NaN
355.676971	NaN
362.387878	NaN
369.098755	NaN
375.809631	NaN
382.520538	NaN
389.231415	NaN
395.942291	NaN
402.653198	NaN
409.364075	NaN
416.074951	NaN
422.785858	NaN
429.496735	NaN
442.918488	NaN
456.340271	NaN
469.762054	NaN
483.183807	NaN
496.605591	NaN
510.027374	NaN
523.449158	NaN
536.870911	NaN
550.292664	NaN
563.714478	NaN
577.136230	NaN
590.557983	NaN
603.979797	NaN
617.401550	NaN
630.823303	NaN
644.245117	NaN
657.666870	NaN
671.088623	NaN
684.510437	NaN
697.932190	NaN
711.353943	NaN
724.775757	NaN
738.197510	NaN
751.619263	NaN
765.041077	NaN
778.462830	NaN
791.884583	NaN
805.306396	NaN
818.728149	NaN
832.149902	NaN
845.571716	NaN
858.993469	NaN
885.836975	NaN
912.680542	NaN
939.524109	NaN
966.367615	NaN
993.211182	NaN
1020.054749	NaN
1046.898315	NaN
1073.741821	NaN
1100.585327	NaN
1127.428955	NaN
1154.272461	NaN
1181.115967	NaN
1207.959595	NaN
1234.803101	NaN
1261.646606	NaN
1288.490234	NaN
1315.333740	NaN
1342.177246	NaN
1369.020874	NaN
1395.864380	NaN
1422.707886	NaN
1449.551514	NaN
1476.395020	NaN
1503.238525	NaN
1530.082153	NaN
1556.925659	NaN
1583.769165	NaN
1610.612793	NaN
1637.456299	NaN
1664.299805	NaN
1691.143433	NaN
1717.986938	NaN
1771.673950	NaN
1825.361084	NaN
1879.048218	NaN
1932.735229	NaN
1986.422363	NaN
2040.109497	NaN
2093.796631	NaN
2147.483643	NaN
2201.170654	NaN
2254.857910	NaN
2308.544922	NaN
2362.231934	NaN
2415.919189	NaN
2469.606201	NaN
2523.293213	NaN
2576.980469	NaN
2630.667480	NaN
2684.354492	NaN
2738.041748	NaN
2791.728760	NaN
2845.415771	NaN
2899.103027	NaN
2952.790039	NaN
3006.477051	NaN
3060.164307	NaN
3113.851318	NaN
3167.538330	NaN
3221.225586	NaN
3274.912598	NaN
3328.599609	NaN
3382.286865	NaN
3435.973877	NaN
0.000000	NaN
0.000000	NaN
0.000000	NaN
0.000000	NaN
0.000000	NaN
0.000000	NaN
0.000000	NaN
0.000000	NaN
0.000000	NaN
0.000000	NaN
0.000000	NaN
0.000000	NaN
0.000000	NaN
0.000000	NaN
0.000000	NaN
0.000000	NaN
0.000000	NaN
0.000000	NaN
0.000000	NaN
0.000000	NaN
0.000000	NaN
0.000000	NaN
0.000000	NaN
0.000000	NaN
0.000000	NaN
0.000000	NaN
0.000000	NaN
0.000000	NaN
0.000000	NaN
0.000000	NaN
0.000000	NaN
0.000000	NaN

Count Rate History (KHz)  CR CHA / CR CHB
0.000000	44.574738	42.362213
0.104858	46.920776	43.230057
0.209715	51.698685	51.231384
0.314573	53.358078	48.875809
0.419430	43.487549	41.790009
0.524288	46.606064	44.012070
0.629146	44.975281	40.931702
0.734003	43.048859	41.580200
0.838861	53.739548	49.962997
0.943718	42.276382	39.396286
1.048576	51.660538	48.494339
1.153434	44.603348	42.343140
1.258291	50.487518	45.604706
1.363149	43.449402	40.445328
1.468006	49.886703	46.138763
1.572864	50.382614	46.529770
1.677722	46.386719	43.945312
1.782579	40.941238	38.433075
1.887437	46.749115	43.563843
1.992294	43.945312	41.065216
2.097152	46.310425	44.946671
2.202010	40.473938	37.555695
2.306867	44.965744	40.836334
2.411725	38.318634	35.085678
2.516582	49.915314	45.909882
2.621440	43.878555	40.092468
2.726298	47.998428	45.099258
2.831155	48.761368	47.082901
2.936013	48.618317	44.612885
3.040870	43.592453	40.607452
3.145728	45.032501	40.760040
3.250586	46.310425	42.419434
3.355443	45.204163	45.843124
3.460301	54.597855	50.621033
3.565158	49.724579	47.054291
3.670016	47.922134	44.183731
3.774874	47.311783	45.423508
3.879731	44.546127	42.915344
3.984589	49.800873	48.799515
4.089446	45.490265	43.287277
4.194304	46.768188	45.270920
4.299162	48.761368	46.291351
4.404019	49.219131	47.273636
4.508877	47.340393	44.679642
4.613734	46.405792	43.497086
4.718592	43.077469	40.168762
4.823450	45.127869	41.818619
4.928307	46.987534	43.268204
5.033165	46.234131	43.706894
5.138022	50.764084	48.723221
5.242880	47.626495	43.277740
5.347738	46.739578	42.552948
5.452595	46.148300	42.228699
5.557453	46.157837	42.781830
5.662310	45.547485	43.840408
5.767168	45.118332	42.400360
5.872026	43.478012	41.284561
5.976883	44.889450	43.592453
6.081741	49.819946	48.990250
6.186598	50.153732	48.913956
6.291456	44.555664	41.866302
6.396314	43.745041	41.828156
6.501171	50.258636	48.980713
6.606029	48.990250	44.021606
6.710886	51.336288	50.153732
6.815744	45.042038	40.607452
6.920602	54.674149	52.900314
7.025459	54.235458	51.975250
7.130317	52.347183	48.646927
7.235174	50.306320	49.581528
7.340032	45.957565	41.818619
7.444890	48.885345	45.576096
7.549747	43.992996	41.866302
7.654605	42.982101	39.377213
7.759462	46.796799	43.649673
7.864320	47.111511	44.403076
7.969178	51.069260	49.505234
8.074035	46.405792	44.689178
8.178893	45.738220	40.426254
8.283750	47.760010	45.900345
8.388608	50.544739	46.262741
8.493466	48.856735	46.920776
8.598323	49.152374	45.957565
8.703181	47.292709	45.309067
8.808038	49.610138	44.937134
8.912896	49.133301	45.661926
9.017754	49.581528	47.683716
9.122611	46.682358	42.495728
9.227469	44.155121	41.627884
9.332326	49.448013	46.339035
9.437184	43.907166	42.829514
9.542042	45.442581	42.848587
9.646899	44.622421	40.969849
9.751757	48.370361	45.137405
9.856614	51.212311	47.874451
9.961472	51.832199	50.477982
10.066330	45.766830	41.351318
10.171187	47.388077	42.324066
10.276045	55.208206	54.759979
10.380902	47.960281	44.775009
10.485760	49.333572	46.682358
10.590618	48.065186	46.319962
10.695475	41.198730	37.527084
10.800333	53.806305	51.946640
10.905190	45.433044	41.046143
11.010048	49.381256	46.339035
11.114906	52.442551	48.999786
11.219763	60.834885	60.319901
11.324621	54.445267	50.363541
11.429478	45.566559	40.082932
11.534336	42.629242	38.337708
11.639194	47.302246	42.638779
11.744051	39.587021	36.544800
11.848909	47.321320	46.691895
11.953766	48.351288	45.948029
12.058624	47.407150	45.099258
12.163482	46.691895	43.315887
12.268339	48.017502	46.806335
12.373197	43.935776	42.314529
12.478054	43.811798	39.625168
12.582912	46.644211	43.878555
12.687770	51.250458	47.979355
12.792627	52.251816	50.344467
12.897485	49.066544	45.690536
13.002342	42.753220	41.933060
13.107200	49.571991	46.062469
13.212058	51.870346	51.145554
13.316915	48.379898	46.377182
13.421773	44.660568	42.285919
13.526630	54.426193	51.460266
13.631488	43.983459	40.616989
13.736346	49.934387	47.664642
13.841203	43.878555	41.265488
13.946061	44.279099	41.551590
14.050918	46.606064	45.223236
14.155776	52.146912	49.438477
14.260634	55.265427	56.133270
14.365491	52.595139	50.239563
14.470349	47.397614	45.356750
14.575206	43.754578	41.027069
14.680064	48.675537	43.954849
14.784922	52.995682	51.374435
14.889779	46.386719	45.318604
14.994637	46.710968	42.972565
15.099494	41.408539	37.918091
15.204352	43.478012	41.618347
15.309210	48.351288	45.681000
15.414067	46.663284	43.096542
15.518925	41.160583	38.089752
15.623782	43.506622	41.437149
15.728640	54.025650	51.355362
15.833498	44.832230	40.512085
15.938355	53.873062	51.622391
16.043213	60.205460	57.096481
16.148070	51.965714	47.225952
16.252928	46.529770	44.384003
16.357786	50.239563	46.014786
16.462643	46.253204	42.295456
16.567501	47.235489	45.690536
16.672358	46.615601	43.058395
16.777216	44.565201	42.438507
16.882074	57.601929	55.665970
16.986931	47.311783	45.270920
17.091789	43.640137	37.908554
17.196646	44.078827	41.685104
17.301504	44.288635	40.044785
17.406362	48.942566	46.882629
17.511219	50.411224	47.321320
17.616077	49.266815	48.112869
17.720934	49.142838	47.054291
17.825792	46.110153	41.980743
17.930650	51.651001	50.182343
18.035507	48.933029	45.862198
18.140365	51.374435	47.941208
18.245222	45.137405	41.093826
18.350080	43.554306	41.093826
18.454938	45.881271	41.780472
18.559795	46.367645	43.201447
18.664653	45.690536	42.610168
18.769510	42.400360	38.986206
18.874368	48.780441	44.937134
18.979226	49.705505	46.072006
19.084083	47.597885	45.938492
19.188941	44.708252	41.542053
19.293798	47.140121	44.317245
19.398656	47.760010	44.994354
19.503514	45.194626	42.238235
19.608371	44.708252	42.037964
19.713229	48.952103	44.784546
