1/9/2026	1:29 PM
Pseudo Cross Correlation
Scattering angle:	90.0
Duration (s):	20
Wavelength (nm):	632.8
Refractive index:	1.330
Viscosity (mPas):	0.712
Temperature (K):	308.7
Laser intensity (mW):	2.645699
Average Count rate  A (kHz):	45.1
Average Count rate  B (kHz):	42.5
Intercept:	0.8530
Cumulant 1st	53.83
Cumulant 2nd	51.68	11.07
Cumulant 3rd	52.78	6.80

Lag time (s)         g2-1
1.250000E-8	0.862129
2.500000E-8	0.788734
3.750000E-8	0.799219
5.000000E-8	0.855838
6.250000E-8	0.916651
7.500000E-8	0.883099
8.750000E-8	0.925039
1.000000E-7	0.692272
1.125000E-7	0.929233
1.250000E-7	0.941815
1.375000E-7	0.870517
1.500000E-7	0.872614
1.625000E-7	0.935524
1.750000E-7	0.832771
1.875000E-7	0.939718
2.000000E-7	0.862129
2.125000E-7	0.811801
2.250000E-7	0.887293
2.375000E-7	0.805510
2.500000E-7	0.818092
2.625000E-7	0.904069
2.750000E-7	0.862129
2.875000E-7	0.895681
3.000000E-7	0.836965
3.125000E-7	0.830674
3.250000E-7	0.841159
3.375000E-7	0.891487
3.500000E-7	0.830674
3.625000E-7	0.964881
3.750000E-7	0.824383
3.875000E-7	0.774055
4.000000E-7	0.878905
4.125000E-7	0.836965
4.250000E-7	0.960687
4.375000E-7	0.891487
4.500000E-7	0.860032
4.625000E-7	0.830674
4.750000E-7	0.700660
4.875000E-7	0.874711
5.000000E-7	0.843256
5.125000E-7	0.845353
5.250000E-7	0.851644
5.375000E-7	0.809704
5.500000E-7	0.990045
5.625000E-7	0.843256
5.750000E-7	0.891487
5.875000E-7	0.981657
6.000000E-7	0.807607
6.125000E-7	0.876808
6.250000E-7	0.853741
6.375000E-7	0.792928
6.500000E-7	0.841159
6.625000E-7	0.847450
6.750000E-7	0.832771
6.875000E-7	0.927136
7.000000E-7	0.795025
7.125000E-7	0.862129
7.250000E-7	0.767764
7.375000E-7	0.826480
7.500000E-7	0.795025
7.625000E-7	0.845353
7.750000E-7	0.920845
7.875000E-7	0.841159
8.000000E-7	0.822286
8.250000E-7	0.746794
8.500000E-7	0.856886
8.750000E-7	0.821238
9.000000E-7	0.832771
9.250000E-7	0.922942
9.500000E-7	0.892535
9.750000E-7	0.845353
1.000000E-6	0.823335
1.025000E-6	0.851644
1.050000E-6	0.786637
1.075000E-6	0.887293
1.100000E-6	0.886244
1.125000E-6	0.864226
1.150000E-6	0.821238
1.175000E-6	0.778249
1.200000E-6	0.878905
1.225000E-6	0.843256
1.250000E-6	0.877856
1.275000E-6	0.851644
1.300000E-6	1.008918
1.325000E-6	0.865274
1.350000E-6	0.733164
1.375000E-6	0.825432
1.400000E-6	0.847450
1.425000E-6	0.899875
1.450000E-6	0.844304
1.475000E-6	0.849547
1.500000E-6	0.834868
1.525000E-6	0.882050
1.550000E-6	0.799219
1.575000E-6	0.842207
1.600000E-6	0.814947
1.650000E-6	0.851120
1.700000E-6	0.824907
1.750000E-6	0.862129
1.800000E-6	0.819141
1.850000E-6	0.776676
1.900000E-6	0.842207
1.950000E-6	0.796598
2.000000E-6	0.834868
2.050000E-6	0.826480
2.100000E-6	0.853741
2.150000E-6	0.832247
2.200000E-6	0.784540
2.250000E-6	0.893584
2.300000E-6	0.840635
2.350000E-6	0.823335
2.400000E-6	0.858983
2.450000E-6	0.851120
2.500000E-6	0.910884
2.550000E-6	0.858983
2.600000E-6	0.826480
2.650000E-6	0.895681
2.700000E-6	0.820189
2.750000E-6	0.874711
2.800000E-6	0.869468
2.850000E-6	0.864226
2.900000E-6	0.843256
2.950000E-6	0.846926
3.000000E-6	0.879953
3.050000E-6	0.857411
3.100000E-6	0.810753
3.150000E-6	0.820713
3.200000E-6	0.818616
3.300000E-6	0.855576
3.400000E-6	0.838538
3.500000E-6	0.827266
3.600000E-6	0.833295
3.700000E-6	0.857411
3.800000E-6	0.807345
3.900000E-6	0.822024
4.000000E-6	0.816257
4.100000E-6	0.841683
4.200000E-6	0.856362
4.300000E-6	0.844042
4.400000E-6	0.840110
4.500000E-6	0.831198
4.600000E-6	0.839062
4.700000E-6	0.809180
4.800000E-6	0.816257
4.900000E-6	0.791093
5.000000E-6	0.833033
5.100000E-6	0.803937
5.200000E-6	0.859245
5.300000E-6	0.822286
5.400000E-6	0.821500
5.500000E-6	0.822548
5.600000E-6	0.821238
5.700000E-6	0.851644
5.800000E-6	0.837751
5.900000E-6	0.836441
6.000000E-6	0.816519
6.100000E-6	0.800005
6.200000E-6	0.843256
6.300000E-6	0.848236
6.400000E-6	0.836441
6.600000E-6	0.849809
6.800000E-6	0.825432
7.000000E-6	0.809049
7.200000E-6	0.841290
7.400000E-6	0.838013
7.600000E-6	0.813898
7.800000E-6	0.822548
8.000000E-6	0.835916
8.200000E-6	0.839979
8.400000E-6	0.796205
8.600000E-6	0.839193
8.800000E-6	0.804199
9.000000E-6	0.815078
9.200000E-6	0.804593
9.400000E-6	0.832509
9.600000E-6	0.827528
9.800000E-6	0.814947
1.000000E-5	0.800268
1.020000E-5	0.818747
1.040000E-5	0.799612
1.060000E-5	0.833557
1.080000E-5	0.785064
1.100000E-5	0.814553
1.120000E-5	0.788865
1.140000E-5	0.805248
1.160000E-5	0.787555
1.180000E-5	0.799350
1.200000E-5	0.821238
1.220000E-5	0.811015
1.240000E-5	0.827922
1.260000E-5	0.790438
1.280000E-5	0.817699
1.320000E-5	0.805248
1.360000E-5	0.815405
1.400000E-5	0.804003
1.440000E-5	0.795287
1.480000E-5	0.816323
1.520000E-5	0.801906
1.560000E-5	0.787882
1.600000E-5	0.789521
1.640000E-5	0.806559
1.680000E-5	0.799809
1.720000E-5	0.785851
1.760000E-5	0.802823
1.800000E-5	0.792928
1.840000E-5	0.796008
1.880000E-5	0.784278
1.920000E-5	0.774711
1.960000E-5	0.806165
2.000000E-5	0.766781
2.040000E-5	0.771893
2.080000E-5	0.775693
2.120000E-5	0.780281
2.160000E-5	0.781264
2.200000E-5	0.787817
2.240000E-5	0.779167
2.280000E-5	0.772220
2.320000E-5	0.771106
2.360000E-5	0.787751
2.400000E-5	0.778184
2.440000E-5	0.762980
2.480000E-5	0.778642
2.520000E-5	0.779756
2.560000E-5	0.763505
2.640000E-5	0.782017
2.720000E-5	0.770320
2.800000E-5	0.758819
2.880000E-5	0.753937
2.960000E-5	0.750824
3.040000E-5	0.752397
3.120000E-5	0.752004
3.200000E-5	0.752070
3.280000E-5	0.737653
3.360000E-5	0.754298
3.440000E-5	0.736506
3.520000E-5	0.729494
3.600000E-5	0.736309
3.680000E-5	0.732050
3.760000E-5	0.727758
3.840000E-5	0.729396
3.920000E-5	0.722908
4.000000E-5	0.719697
4.080000E-5	0.713373
4.160000E-5	0.700071
4.240000E-5	0.708721
4.320000E-5	0.712882
4.400000E-5	0.712816
4.480000E-5	0.705608
4.560000E-5	0.703216
4.640000E-5	0.694959
4.720000E-5	0.699972
4.800000E-5	0.691027
4.880000E-5	0.693714
4.960000E-5	0.675595
5.040000E-5	0.700497
5.120000E-5	0.694763
5.280000E-5	0.678909
5.440000E-5	0.685838
5.600000E-5	0.675403
5.760000E-5	0.671784
5.920000E-5	0.673078
6.080000E-5	0.663282
6.240000E-5	0.652207
6.400000E-5	0.653583
6.560000E-5	0.654517
6.720000E-5	0.646047
6.880000E-5	0.648157
7.040000E-5	0.637525
7.200000E-5	0.625598
7.360000E-5	0.620929
7.520000E-5	0.617178
7.680000E-5	0.621585
7.840000E-5	0.599306
8.000000E-5	0.611495
8.160000E-5	0.611134
8.320000E-5	0.607792
8.480000E-5	0.596423
8.640000E-5	0.598520
8.800000E-5	0.591604
8.960000E-5	0.583954
9.120000E-5	0.573420
9.280000E-5	0.580219
9.440000E-5	0.573518
9.600000E-5	0.564377
9.760000E-5	0.560494
9.920000E-5	0.558186
0.000101	0.553746
0.000102	0.556056
0.000106	0.546202
0.000109	0.541697
0.000112	0.536956
0.000115	0.521778
0.000118	0.519330
0.000122	0.506470
0.000125	0.504847
0.000128	0.503503
0.000131	0.493551
0.000134	0.482919
0.000138	0.477955
0.000141	0.470984
0.000144	0.464857
0.000147	0.456289
0.000150	0.453307
0.000154	0.450018
0.000157	0.440588
0.000160	0.432823
0.000163	0.429022
0.000166	0.418316
0.000170	0.423370
0.000173	0.416153
0.000176	0.410338
0.000179	0.396879
0.000182	0.393169
0.000186	0.390916
0.000189	0.388139
0.000192	0.376999
0.000195	0.376778
0.000198	0.363082
0.000202	0.365564
0.000205	0.368046
0.000211	0.351809
0.000218	0.340075
0.000224	0.334454
0.000230	0.321590
0.000237	0.313396
0.000243	0.304865
0.000250	0.294908
0.000256	0.292233
0.000262	0.283375
0.000269	0.279525
0.000275	0.271362
0.000282	0.265239
0.000288	0.256335
0.000294	0.247967
0.000301	0.240497
0.000307	0.234890
0.000314	0.230455
0.000320	0.221060
0.000326	0.217221
0.000333	0.212564
0.000339	0.210280
0.000346	0.205181
0.000352	0.198042
0.000358	0.192418
0.000365	0.188302
0.000371	0.186525
0.000378	0.178927
0.000384	0.175192
0.000390	0.172226
0.000397	0.166402
0.000403	0.159276
0.000410	0.155852
0.000422	0.150290
0.000435	0.141336
0.000448	0.136390
0.000461	0.129151
0.000474	0.125119
0.000486	0.118000
0.000499	0.113102
0.000512	0.105976
0.000525	0.099552
0.000538	0.096505
0.000550	0.091785
0.000563	0.088589
0.000576	0.086056
0.000589	0.082987
0.000602	0.076607
0.000614	0.074512
0.000627	0.069480
0.000640	0.066416
0.000653	0.064467
0.000666	0.060272
0.000678	0.058922
0.000691	0.052317
0.000704	0.050970
0.000717	0.049879
0.000730	0.048998
0.000742	0.044951
0.000755	0.043878
0.000768	0.038645
0.000781	0.039701
0.000794	0.037944
0.000806	0.038974
0.000819	0.035380
0.000845	0.031900
0.000870	0.030526
0.000896	0.027637
0.000922	0.024785
0.000947	0.024007
0.000973	0.020138
0.000998	0.017267
0.001024	0.018349
0.001050	0.017445
0.001075	0.013556
0.001101	0.015965
0.001126	0.011660
0.001152	0.010324
0.001178	0.009199
0.001203	0.009307
0.001229	0.007840
0.001254	0.005629
0.001280	0.006735
0.001306	0.007630
0.001331	0.007285
0.001357	0.006985
0.001382	0.004461
0.001408	0.007007
0.001434	0.004236
0.001459	0.003713
0.001485	0.007249
0.001510	0.007544
0.001536	0.008077
0.001562	0.009185
0.001587	0.011147
0.001613	0.008479
0.001638	0.009862
0.001690	0.010742
0.001741	0.009058
0.001792	0.010781
0.001843	0.009148
0.001894	0.010377
0.001946	0.008577
0.001997	0.009131
0.002048	0.009510
0.002099	0.007875
0.002150	0.010143
0.002202	0.006634
0.002253	0.004568
0.002304	0.002880
0.002355	0.004311
0.002406	0.005631
0.002458	0.003824
0.002509	0.002596
0.002560	-0.000652
0.002611	-0.000677
0.002662	0.001888
0.002714	-0.002330
0.002765	-0.000334
0.002816	-0.000644
0.002867	0.001435
0.002918	0.000308
0.002970	-8.958040E-5
0.003021	-0.001428
0.003072	-0.000902
0.003123	-0.002044
0.003174	-2.805591E-5
0.003226	-0.001845
0.003277	-0.001775
0.003379	0.002088
0.003482	0.005249
0.003584	0.005587
0.003686	0.005831
0.003789	0.006344
0.003891	0.007552
0.003994	0.007012
0.004096	0.005603
0.004198	0.004851
0.004301	0.004283
0.004403	0.002635
0.004506	0.001396
0.004608	0.000731
0.004710	-0.000712
0.004813	-0.002006
0.004915	-0.000775
0.005018	-0.000183
0.005120	0.000156
0.005222	0.001608
0.005325	0.002315
0.005427	0.003964
0.005530	0.004742
0.005632	0.005383
0.005734	0.004935
0.005837	0.004257
0.005939	0.001641
0.006042	0.002493
0.006144	0.001426
0.006246	0.001439
0.006349	0.002664
0.006451	0.003878
0.006554	0.003336
0.006758	0.000876
0.006963	0.000438
0.007168	-0.001683
0.007373	-0.002772
0.007578	-0.000911
0.007782	0.000987
0.007987	-0.001147
0.008192	-0.000341
0.008397	0.002479
0.008602	0.005494
0.008806	0.006723
0.009011	0.003674
0.009216	0.003490
0.009421	0.001946
0.009626	0.002083
0.009830	0.004908
0.010035	0.002317
0.010240	-0.000387
0.010445	0.000331
0.010650	0.002391
0.010854	0.003246
0.011059	0.001519
0.011264	-0.002271
0.011469	-0.002872
0.011674	-0.002324
0.011878	-0.000815
0.012083	0.002592
0.012288	0.003435
0.012493	0.000828
0.012698	-0.001259
0.012902	-0.003045
0.013107	-0.002110
0.013517	-0.000704
0.013926	-0.001734
0.014336	-0.002040
0.014746	0.003646
0.015155	0.003181
0.015565	0.004136
0.015974	0.002927
0.016384	0.006540
0.016794	0.006731
0.017203	0.004959
0.017613	0.002232
0.018022	-0.000360
0.018432	0.000751
0.018842	-0.002438
0.019251	-0.003158
0.019661	-0.003885
0.020070	-0.002853
0.020480	-0.000869
0.020890	-0.002222
0.021299	-0.000722
0.021709	0.004166
0.022118	0.002407
0.022528	-0.002619
0.022938	-0.002626
0.023347	-0.002378
0.023757	0.000763
0.024166	0.004939
0.024576	0.005108
0.024986	0.001981
0.025395	-0.003405
0.025805	0.001154
0.026214	-0.002994
0.027034	-0.005257
0.027853	-0.002046
0.028672	-0.003074
0.029491	0.001073
0.030310	0.000728
0.031130	0.000726
0.031949	-0.000623
0.032768	-0.002237
0.033587	0.004166
0.034406	0.003855
0.035226	0.006734
0.036045	0.002512
0.036864	-0.000672
0.037683	0.004085
0.038502	0.002968
0.039322	0.004043
0.040141	0.003044
0.040960	0.003023
0.041779	-0.003591
0.042598	0.000986
0.043418	-0.000260
0.044237	0.003783
0.045056	0.001677
0.045875	0.002666
0.046694	-0.001796
0.047514	-0.001309
0.048333	0.004549
0.049152	0.007736
0.049971	0.001797
0.050790	0.002315
0.051610	-0.002737
0.052429	-0.002270
0.054067	0.000387
0.055706	0.000107
0.057344	-0.001939
0.058982	0.000144
0.060621	5.022046E-5
0.062259	-0.001000
0.063898	-7.461961E-5
0.065536	-0.001744
0.067174	0.001330
0.068813	-0.001482
0.070451	0.000744
0.072090	0.004133
0.073728	0.002697
0.075366	0.001019
0.077005	0.003411
0.078643	0.000631
0.080282	0.002344
0.081920	-0.000925
0.083558	0.000219
0.085197	0.001820
0.086835	-0.000407
0.088474	8.227131E-5
0.090112	-0.000113
0.091750	-0.001385
0.093389	0.004628
0.095027	0.000505
0.096666	-0.001551
0.098304	-0.001758
0.099942	-0.000851
0.101581	-0.002322
0.103219	-0.001229
0.104858	-0.000267
0.108134	0.003457
0.111411	-0.000932
0.114688	0.001830
0.117965	0.001015
0.121242	-0.000240
0.124518	0.002723
0.127795	0.002104
0.131072	0.001320
0.134349	-0.000835
0.137626	0.002275
0.140902	0.001962
0.144179	0.002339
0.147456	0.003965
0.150733	0.002313
0.154010	0.000825
0.157286	-0.001362
0.160563	0.000764
0.163840	-0.001701
0.167117	0.002338
0.170394	-0.000721
0.173670	-0.001664
0.176947	-0.002309
0.180224	0.001798
0.183501	-0.000955
0.186778	-0.000677
0.190054	0.000921
0.193331	-0.000849
0.196608	0.000101
0.199885	7.595262E-5
0.203162	4.845892E-5
0.206438	-0.002592
0.209715	-0.001239
0.216269	-9.950022E-5
0.222822	-6.519991E-5
0.229376	-0.000535
0.235930	0.000692
0.242483	0.000458
0.249037	-0.000840
0.255590	-0.001095
0.262144	-0.001277
0.268698	-0.000368
0.275251	-0.000186
0.281805	-0.000969
0.288358	-0.000520
0.294912	-0.001812
0.301466	-0.001324
0.308019	-0.000255
0.314573	-0.000286
0.321126	-0.001236
0.327680	-0.002126
0.334234	-0.003016
0.340787	-0.000559
0.347341	0.000310
0.353894	-0.001095
0.360448	4.933388E-5
0.367002	0.000835
0.373555	-0.000902
0.380109	0.001038
0.386662	-0.000410
0.393216	-0.001465
0.399770	-0.000362
0.406323	-8.905038E-5
0.412877	-0.001057
0.419430	-0.000710
0.432538	0.000324
0.445645	-0.001403
0.458752	0.000156
0.471859	2.548407E-5
0.484966	-0.001281
0.498074	0.000896
0.511181	0.000889
0.524288	-0.001548
0.537395	0.000393
0.550502	0.000505
0.563610	-0.000661
0.576717	0.000818
0.589824	0.000554
0.602931	-0.001418
0.616038	-0.000867
0.629146	6.082725E-6
0.642253	0.000418
0.655360	0.000512
0.668467	-0.000456
0.681574	-2.722558E-5
0.694682	0.000192
0.707789	0.000341
0.720896	-0.000724
0.734003	-0.000423
0.747110	-0.001755
0.760218	-0.000283
0.773325	-0.001203
0.786432	0.000387
0.799539	-4.532930E-5
0.812646	0.000131
0.825754	-0.001054
0.838861	0.000606
0.865075	-6.743032E-5
0.891290	-0.000861
0.917504	-0.000638
0.943718	0.000382
0.969933	0.001330
0.996147	0.000282
1.022362	-0.000956
1.048576	0.000335
1.074790	-0.000618
1.101005	0.000540
1.127219	0.000149
1.153434	0.000177
1.179648	4.761637E-5
1.205862	1.068691E-5
1.232077	0.000677
1.258291	-0.000125
1.284506	-0.000982
1.310720	-0.000184
1.336934	-0.000552
1.363149	0.001064
1.389363	1.955174E-5
1.415578	0.000672
1.441792	-0.000239
1.468006	4.485944E-5
1.494221	0.000185
1.520435	-0.000751
1.546650	0.000259
1.572864	-0.000845
1.599078	-5.774653E-5
1.625293	-0.000627
1.651507	0.000168
1.677722	-0.000112
1.730150	-7.608516E-6
1.782579	-0.000317
1.835008	0.000141
1.887437	-0.000387
1.939866	-0.000886
1.992294	-0.000393
2.044723	4.358057E-5
2.097152	-0.000229
2.149581	8.368851E-5
2.202010	0.000210
2.254438	-0.000571
2.306867	0.001026
2.359296	0.000313
2.411725	-0.000127
2.464154	-0.000282
2.516582	-0.000209
2.569011	-0.000124
2.621440	0.000954
2.673869	0.000382
2.726298	-0.000259
2.778726	0.000511
2.831155	-0.000676
2.883584	-0.001263
2.936013	-0.000759
2.988442	-1.538380E-5
3.040870	-0.001238
3.093299	-0.000156
3.145728	0.000241
3.198157	-0.000144
3.250586	-5.211823E-5
3.303015	-0.000564
3.355443	-0.000963
3.460301	0.001075
3.565158	0.001259
3.670016	-0.000498
3.774873	-0.000225
3.879731	-0.000275
3.984589	-2.519409E-5
4.089447	0.000204
4.194304	-0.000841
4.299161	-0.000552
4.404019	-0.000218
4.508877	0.000674
4.613734	0.001311
4.718592	0.000386
4.823450	-0.000667
4.928307	0.000382
5.033165	0.000343
5.138022	0.000341
5.242880	-0.000248
5.347738	-0.000806
5.452595	-0.000592
5.557453	-0.000543
5.662311	0.000809
5.767168	0.000796
5.872025	0.000248
5.976883	0.000285
6.081741	-0.000759
6.186598	6.146129E-5
6.291456	-0.000223
6.396314	-3.228865E-5
6.501171	-1.617449E-5
6.606029	-0.000524
6.710886	-0.000669
6.920601	0.000337
7.130317	7.969882E-5
7.340032	-0.000703
7.549747	0.000248
7.759462	-0.000327
7.969178	-0.000131
8.178893	0.001201
8.388608	0.000348
8.598323	-0.000408
8.808039	-0.000906
9.017754	0.000265
9.227468	0.000238
9.437184	-0.000173
9.646899	0.000385
9.856614	-0.000780
10.066330	0.000195
10.276045	0.000474
10.485760	4.735099E-5
10.695476	0.000116
10.905190	-0.000136
11.114905	-0.000382
11.324621	-0.000389
11.534336	0.000841
11.744051	0.000207
11.953767	-0.000783
12.163482	0.000935
12.373197	-0.000765
12.582912	0.000158
12.792627	0.000497
13.002342	-0.000192
13.212058	0.000623
13.421773	-0.001156
13.841203	0.000424
14.260633	3.669617E-5
14.680064	-0.000286
15.099494	0.000301
15.518925	-0.000119
15.938355	-0.000222
16.357786	0.000253
16.777216	0.000131
17.196646	-0.000313
17.616077	0.000171
18.035507	3.681172E-6
18.454937	-1.343905E-5
18.874369	-9.881265E-6
19.293798	0.000000
19.713228	NaN
20.132660	NaN
20.552090	NaN
20.971519	NaN
21.390951	NaN
21.810381	NaN
22.229811	NaN
22.649242	NaN
23.068672	NaN
23.488102	NaN
23.907534	NaN
24.326963	NaN
24.746393	NaN
25.165825	NaN
25.585255	NaN
26.004684	NaN
26.424116	NaN
26.843546	NaN
27.682405	NaN
28.521267	NaN
29.360128	NaN
30.198988	NaN
31.037849	NaN
31.876711	NaN
32.715572	NaN
33.554432	NaN
34.393291	NaN
35.232155	NaN
36.071014	NaN
36.909874	NaN
37.748737	NaN
38.587597	NaN
39.426456	NaN
40.265320	NaN
41.104179	NaN
41.943039	NaN
42.781902	NaN
43.620762	NaN
44.459621	NaN
45.298485	NaN
46.137344	NaN
46.976204	NaN
47.815067	NaN
48.653927	NaN
49.492786	NaN
50.331650	NaN
51.170509	NaN
52.009369	NaN
52.848232	NaN
53.687092	NaN
55.364811	NaN
57.042534	NaN
58.720257	NaN
60.397976	NaN
62.075699	NaN
63.753422	NaN
65.431145	NaN
67.108864	NaN
68.786583	NaN
70.464310	NaN
72.142029	NaN
73.819748	NaN
75.497475	NaN
77.175194	NaN
78.852913	NaN
80.530640	NaN
82.208359	NaN
83.886078	NaN
85.563805	NaN
87.241524	NaN
88.919243	NaN
90.596970	NaN
92.274689	NaN
93.952408	NaN
95.630135	NaN
97.307854	NaN
98.985573	NaN
100.663300	NaN
102.341019	NaN
104.018738	NaN
105.696465	NaN
107.374184	NaN
110.729622	NaN
114.085068	NaN
117.440514	NaN
120.795952	NaN
124.151398	NaN
127.506844	NaN
130.862289	NaN
134.217728	NaN
137.573166	NaN
140.928619	NaN
144.284058	NaN
147.639496	NaN
150.994949	NaN
154.350388	NaN
157.705826	NaN
161.061279	NaN
164.416718	NaN
167.772156	NaN
171.127609	NaN
174.483047	NaN
177.838486	NaN
181.193939	NaN
184.549377	NaN
187.904816	NaN
191.260269	NaN
194.615707	NaN
197.971146	NaN
201.326599	NaN
204.682037	NaN
208.037476	NaN
211.392929	NaN
214.748367	NaN
221.459244	NaN
228.170135	NaN
234.881027	NaN
241.591904	NaN
248.302795	NaN
255.013687	NaN
261.724579	NaN
268.435455	NaN
275.146332	NaN
281.857239	NaN
288.568115	NaN
295.278992	NaN
301.989899	NaN
308.700775	NaN
315.411652	NaN
322.122559	NaN
328.833435	NaN
335.544312	NaN
342.255219	NaN
348.966095	NaN
355.676971	NaN
362.387878	NaN
369.098755	NaN
375.809631	NaN
382.520538	NaN
389.231415	NaN
395.942291	NaN
402.653198	NaN
409.364075	NaN
416.074951	NaN
422.785858	NaN
429.496735	NaN
442.918488	NaN
456.340271	NaN
469.762054	NaN
483.183807	NaN
496.605591	NaN
510.027374	NaN
523.449158	NaN
536.870911	NaN
550.292664	NaN
563.714478	NaN
577.136230	NaN
590.557983	NaN
603.979797	NaN
617.401550	NaN
630.823303	NaN
644.245117	NaN
657.666870	NaN
671.088623	NaN
684.510437	NaN
697.932190	NaN
711.353943	NaN
724.775757	NaN
738.197510	NaN
751.619263	NaN
765.041077	NaN
778.462830	NaN
791.884583	NaN
805.306396	NaN
818.728149	NaN
832.149902	NaN
845.571716	NaN
858.993469	NaN
885.836975	NaN
912.680542	NaN
939.524109	NaN
966.367615	NaN
993.211182	NaN
1020.054749	NaN
1046.898315	NaN
1073.741821	NaN
1100.585327	NaN
1127.428955	NaN
1154.272461	NaN
1181.115967	NaN
1207.959595	NaN
1234.803101	NaN
1261.646606	NaN
1288.490234	NaN
1315.333740	NaN
1342.177246	NaN
1369.020874	NaN
1395.864380	NaN
1422.707886	NaN
1449.551514	NaN
1476.395020	NaN
1503.238525	NaN
1530.082153	NaN
1556.925659	NaN
1583.769165	NaN
1610.612793	NaN
1637.456299	NaN
1664.299805	NaN
1691.143433	NaN
1717.986938	NaN
1771.673950	NaN
1825.361084	NaN
1879.048218	NaN
1932.735229	NaN
1986.422363	NaN
2040.109497	NaN
2093.796631	NaN
2147.483643	NaN
2201.170654	NaN
2254.857910	NaN
2308.544922	NaN
2362.231934	NaN
2415.919189	NaN
2469.606201	NaN
2523.293213	NaN
2576.980469	NaN
2630.667480	NaN
2684.354492	NaN
2738.041748	NaN
2791.728760	NaN
2845.415771	NaN
2899.103027	NaN
2952.790039	NaN
3006.477051	NaN
3060.164307	NaN
3113.851318	NaN
3167.538330	NaN
3221.225586	NaN
3274.912598	NaN
3328.599609	NaN
3382.286865	NaN
3435.973877	NaN
0.000000	NaN
0.000000	NaN
0.000000	NaN
0.000000	NaN
0.000000	NaN
0.000000	NaN
0.000000	NaN
0.000000	NaN
0.000000	NaN
0.000000	NaN
0.000000	NaN
0.000000	NaN
0.000000	NaN
0.000000	NaN
0.000000	NaN
0.000000	NaN
0.000000	NaN
0.000000	NaN
0.000000	NaN
0.000000	NaN
0.000000	NaN
0.000000	NaN
0.000000	NaN
0.000000	NaN
0.000000	NaN
0.000000	NaN
0.000000	NaN
0.000000	NaN
0.000000	NaN
0.000000	NaN
0.000000	NaN
0.000000	NaN

Count Rate History (KHz)  CR CHA / CR CHB
0.000000	41.599274	38.576126
0.104858	44.174194	41.866302
0.209715	48.303604	46.148300
0.314573	45.480728	42.572021
0.419430	47.006607	43.087006
0.524288	42.896271	38.061142
0.629146	45.032501	42.457581
0.734003	46.625137	44.326782
0.838861	48.351288	46.033859
0.943718	42.295456	40.378571
1.048576	39.033890	37.078857
1.153434	42.743683	40.864944
1.258291	41.847229	38.852692
1.363149	45.995712	41.961670
1.468006	46.281815	45.862198
1.572864	45.547485	42.467117
1.677722	48.217773	45.595169
1.782579	46.405792	43.201447
1.887437	47.101974	43.592453
1.992294	46.815872	43.878555
2.097152	43.640137	40.025711
2.202010	43.735504	40.845871
2.306867	49.877167	45.728683
2.411725	43.487549	40.969849
2.516582	45.261383	40.998459
2.621440	42.581558	40.836334
2.726298	44.622421	42.629242
2.831155	43.525696	41.065216
2.936013	49.018860	47.292709
3.040870	41.189194	37.221909
3.145728	47.779083	45.719147
3.250586	39.377213	36.172867
3.355443	45.757294	42.381287
3.460301	45.442581	42.467117
3.565158	37.755966	35.591125
3.670016	43.468475	39.234161
3.774874	50.249100	46.405792
3.879731	40.273666	37.479401
3.984589	43.821335	42.200089
4.089446	42.247772	41.027069
4.194304	47.607422	45.070648
4.299162	54.922104	54.349899
4.404019	43.315887	39.939880
4.508877	45.690536	41.799545
4.613734	45.166016	42.743683
4.718592	45.309067	41.599274
4.823450	45.394897	42.076111
4.928307	47.826767	44.965744
5.033165	38.700104	35.648346
5.138022	43.344498	41.093826
5.242880	40.245056	39.291382
5.347738	43.954849	40.531158
5.452595	47.874451	42.963028
5.557453	45.270920	41.332245
5.662310	40.006638	37.136078
5.767168	49.972534	46.730042
5.872026	44.212341	41.980743
5.976883	46.529770	42.915344
6.081741	48.923492	46.558380
6.186598	40.674210	37.946701
6.291456	46.739578	44.984818
6.396314	49.543381	48.074722
6.501171	47.712326	44.317245
6.606029	47.817230	45.795441
6.710886	45.938492	44.021606
6.815744	41.894913	40.845871
6.920602	45.719147	42.924881
7.025459	45.070648	42.371750
7.130317	40.531158	40.378571
7.235174	47.998428	45.042038
7.340032	48.170090	45.852661
7.444890	46.653748	44.164658
7.549747	41.503906	39.091110
7.654605	46.167374	42.772293
7.759462	46.300888	43.764114
7.864320	46.625137	44.937134
7.969178	46.272278	44.116974
8.074035	45.366287	42.772293
8.178893	40.874481	38.728714
8.283750	42.610168	38.375854
8.388608	41.265488	39.644241
8.493466	42.686462	40.817261
8.598323	41.475296	40.054321
8.703181	46.663284	43.497086
8.808038	42.514801	40.941238
8.912896	46.586990	43.783188
9.017754	42.772293	39.043427
9.122611	43.516159	43.630600
9.227469	43.296814	40.578842
9.332326	43.487549	40.798187
9.437184	44.498444	43.163300
9.542042	45.013428	42.419434
9.646899	47.636032	44.174194
9.751757	46.157837	43.973923
9.856614	50.001144	47.168732
9.961472	51.412582	49.505234
10.066330	44.078827	45.652390
10.171187	44.746399	41.389465
10.276045	47.292709	45.137405
10.380902	40.931702	38.261414
10.485760	46.901703	44.279099
10.590618	46.577454	44.450760
10.695475	47.874451	48.027039
10.800333	45.928955	41.322708
10.905190	41.837692	38.108826
11.010048	51.841736	50.096512
11.114906	54.235458	49.009323
11.219763	48.294067	46.415329
11.324621	45.061111	40.245056
11.429478	44.116974	41.017532
11.534336	41.751862	39.472580
11.639194	43.334961	38.709641
11.744051	45.814514	43.754578
11.848909	47.626495	45.270920
11.953766	47.349930	43.983459
12.058624	41.599274	37.660599
12.163482	42.123795	38.423538
12.268339	43.992996	41.065216
12.373197	52.967072	50.334930
12.478054	49.142838	46.081543
12.582912	45.003891	43.640137
12.687770	44.794083	41.770935
12.792627	40.855408	38.585663
12.897485	45.242310	42.581558
13.002342	43.125153	42.161942
13.107200	40.693283	39.901733
13.212058	44.097900	38.957596
13.316915	43.954849	42.390823
13.421773	41.017532	38.967133
13.526630	45.967102	42.839050
13.631488	40.607452	38.146973
13.736346	46.529770	44.012070
13.841203	48.942566	47.073364
13.946061	45.175552	42.819977
14.050918	43.392181	38.852692
14.155776	41.103363	37.527084
14.260634	43.935776	40.693283
14.365491	41.685104	38.871765
14.470349	44.422150	39.920807
14.575206	58.765411	58.746338
14.680064	47.607422	46.482086
14.784922	44.612885	41.055679
14.889779	42.219162	39.634705
14.994637	41.074753	38.814545
15.099494	43.640137	40.397644
15.204352	40.655136	37.727356
15.309210	44.612885	40.721893
15.414067	43.087006	40.140152
15.518925	46.920776	43.420792
15.623782	48.303604	47.817230
15.728640	50.334930	46.224594
15.833498	45.032501	41.141510
15.938355	45.967102	43.468475
16.043213	45.013428	41.265488
16.148070	43.277740	40.416718
16.252928	42.572021	41.160583
16.357786	43.268204	40.864944
16.462643	51.641464	49.400330
16.567501	40.340424	38.185120
16.672358	45.642853	41.055679
16.777216	44.097900	40.550232
16.882074	42.238235	40.817261
16.986931	48.789978	47.893524
17.091789	47.864914	44.994354
17.196646	42.161942	40.140152
17.301504	44.231415	42.400360
17.406362	53.081512	49.581528
17.511219	43.478012	41.074753
17.616077	43.029785	40.626526
17.720934	44.021606	41.313171
17.825792	40.788651	38.013458
17.930650	44.517517	42.047501
18.035507	47.492981	46.272278
18.140365	53.386688	49.867630
18.245222	42.638779	40.807724
18.350080	44.317245	44.279099
18.454938	40.960312	38.576126
18.559795	43.163300	43.096542
18.664653	45.232773	42.181015
18.769510	44.832230	43.230057
18.874368	44.765472	41.379929
18.979226	44.898987	42.905807
19.084083	48.446655	46.272278
19.188941	43.563843	42.085648
19.293798	45.681000	42.562485
19.398656	44.221878	42.085648
19.503514	45.843124	44.393539
19.608371	45.032501	41.399002
19.713229	47.235489	44.937134
19.818086	45.490265	43.287277
