1/9/2026	1:51 PM
Pseudo Cross Correlation
Scattering angle:	90.0
Duration (s):	20
Wavelength (nm):	632.8
Refractive index:	1.330
Viscosity (mPas):	0.711
Temperature (K):	308.7
Laser intensity (mW):	2.636859
Average Count rate  A (kHz):	211.4
Average Count rate  B (kHz):	222.2
Intercept:	0.9657
Cumulant 1st	365.60
Cumulant 2nd	351.57	73.89
Cumulant 3rd	378.21	167.84

Lag time (s)         g2-1
1.250000E-8	0.947010
2.500000E-8	0.941510
3.750000E-8	0.962911
5.000000E-8	0.937298
6.250000E-8	0.989469
7.500000E-8	0.953714
8.750000E-8	0.964286
1.000000E-7	0.952167
1.125000E-7	0.947870
1.250000E-7	0.935063
1.375000E-7	0.963599
1.500000E-7	0.968756
1.625000E-7	0.955347
1.750000E-7	0.941510
1.875000E-7	0.949417
2.000000E-7	0.969615
2.125000E-7	0.962653
2.250000E-7	0.962653
2.375000E-7	0.934204
2.500000E-7	0.969271
2.625000E-7	0.973569
2.750000E-7	0.950706
2.875000E-7	0.969013
3.000000E-7	0.954746
3.125000E-7	0.989040
3.250000E-7	0.961536
3.375000E-7	0.967294
3.500000E-7	0.960590
3.625000E-7	0.970475
3.750000E-7	0.956895
3.875000E-7	0.959301
4.000000E-7	0.970045
4.125000E-7	0.950706
4.250000E-7	0.952167
4.375000E-7	0.972451
4.500000E-7	0.969873
4.625000E-7	0.965318
4.750000E-7	0.974084
4.875000E-7	0.988008
5.000000E-7	0.967208
5.125000E-7	0.972365
5.250000E-7	0.985859
5.375000E-7	0.951308
5.500000E-7	0.981390
5.625000E-7	0.962481
5.750000E-7	0.964372
5.875000E-7	0.951738
6.000000E-7	0.975803
6.125000E-7	0.955347
6.250000E-7	0.972967
6.375000E-7	0.951136
6.500000E-7	0.962481
6.625000E-7	0.945549
6.750000E-7	0.960504
6.875000E-7	0.958528
7.000000E-7	0.961536
7.125000E-7	0.962137
7.250000E-7	0.964716
7.375000E-7	0.985172
7.500000E-7	0.948987
7.625000E-7	0.969701
7.750000E-7	0.966263
7.875000E-7	0.956723
8.000000E-7	0.948214
8.250000E-7	0.973182
8.500000E-7	0.966564
8.750000E-7	0.956809
9.000000E-7	0.963169
9.250000E-7	0.953757
9.500000E-7	0.960934
9.750000E-7	0.971076
1.000000E-6	0.968412
1.025000E-6	0.952554
1.050000E-6	0.956852
1.075000E-6	0.958055
1.100000E-6	0.963212
1.125000E-6	0.951394
1.150000E-6	0.966822
1.175000E-6	0.965060
1.200000E-6	0.954445
1.225000E-6	0.943272
1.250000E-6	0.967853
1.275000E-6	0.966521
1.300000E-6	0.969529
1.325000E-6	0.966951
1.350000E-6	0.952124
1.375000E-6	0.956723
1.400000E-6	0.955691
1.425000E-6	0.959258
1.450000E-6	0.955476
1.475000E-6	0.968970
1.500000E-6	0.959172
1.525000E-6	0.944346
1.550000E-6	0.965618
1.575000E-6	0.965790
1.600000E-6	0.954918
1.650000E-6	0.961729
1.700000E-6	0.970453
1.750000E-6	0.965468
1.800000E-6	0.961901
1.850000E-6	0.966392
1.900000E-6	0.961214
1.950000E-6	0.964200
2.000000E-6	0.965532
2.050000E-6	0.954810
2.100000E-6	0.970969
2.150000E-6	0.962052
2.200000E-6	0.965232
2.250000E-6	0.962009
2.300000E-6	0.971463
2.350000E-6	0.972731
2.400000E-6	0.959666
2.450000E-6	0.953757
2.500000E-6	0.965146
2.550000E-6	0.954767
2.600000E-6	0.954724
2.650000E-6	0.970947
2.700000E-6	0.949868
2.750000E-6	0.968025
2.800000E-6	0.942820
2.850000E-6	0.966671
2.900000E-6	0.962546
2.950000E-6	0.965361
3.000000E-6	0.954445
3.050000E-6	0.956422
3.100000E-6	0.963942
3.150000E-6	0.958936
3.200000E-6	0.950255
3.300000E-6	0.963534
3.400000E-6	0.960859
3.500000E-6	0.961665
3.600000E-6	0.964759
3.700000E-6	0.959000
3.800000E-6	0.967638
3.900000E-6	0.960075
4.000000E-6	0.956658
4.100000E-6	0.958785
4.200000E-6	0.956562
4.300000E-6	0.959097
4.400000E-6	0.960805
4.500000E-6	0.959269
4.600000E-6	0.963470
4.700000E-6	0.959688
4.800000E-6	0.962299
4.900000E-6	0.962761
5.000000E-6	0.954864
5.100000E-6	0.962288
5.200000E-6	0.959473
5.300000E-6	0.955562
5.400000E-6	0.960784
5.500000E-6	0.961557
5.600000E-6	0.962094
5.700000E-6	0.958452
5.800000E-6	0.953682
5.900000E-6	0.959505
6.000000E-6	0.952812
6.100000E-6	0.956347
6.200000E-6	0.958313
6.300000E-6	0.954445
6.400000E-6	0.953994
6.600000E-6	0.957126
6.800000E-6	0.957727
7.000000E-6	0.954988
7.200000E-6	0.953500
7.400000E-6	0.953215
7.600000E-6	0.954123
7.800000E-6	0.962599
8.000000E-6	0.952339
8.200000E-6	0.960241
8.400000E-6	0.962068
8.600000E-6	0.952624
8.800000E-6	0.957485
9.000000E-6	0.954031
9.200000E-6	0.962642
9.400000E-6	0.957652
9.600000E-6	0.955229
9.800000E-6	0.951764
1.000000E-5	0.956707
1.020000E-5	0.965667
1.040000E-5	0.954381
1.060000E-5	0.962535
1.080000E-5	0.953252
1.100000E-5	0.958372
1.120000E-5	0.951399
1.140000E-5	0.955552
1.160000E-5	0.954198
1.180000E-5	0.955347
1.200000E-5	0.957217
1.220000E-5	0.953768
1.240000E-5	0.954638
1.260000E-5	0.959215
1.280000E-5	0.958141
1.320000E-5	0.957402
1.360000E-5	0.956798
1.400000E-5	0.956572
1.440000E-5	0.951920
1.480000E-5	0.951176
1.520000E-5	0.951668
1.560000E-5	0.953524
1.600000E-5	0.954706
1.640000E-5	0.958143
1.680000E-5	0.956298
1.720000E-5	0.954931
1.760000E-5	0.949272
1.800000E-5	0.952065
1.840000E-5	0.952296
1.880000E-5	0.956113
1.920000E-5	0.958216
1.960000E-5	0.950733
2.000000E-5	0.948885
2.040000E-5	0.949089
2.080000E-5	0.951182
2.120000E-5	0.951767
2.160000E-5	0.951447
2.200000E-5	0.952103
2.240000E-5	0.948246
2.280000E-5	0.949377
2.320000E-5	0.946167
2.360000E-5	0.946661
2.400000E-5	0.947875
2.440000E-5	0.947078
2.480000E-5	0.948660
2.520000E-5	0.950139
2.560000E-5	0.944730
2.640000E-5	0.947728
2.720000E-5	0.949981
2.800000E-5	0.947717
2.880000E-5	0.945577
2.960000E-5	0.944224
3.040000E-5	0.945395
3.120000E-5	0.944140
3.200000E-5	0.944879
3.280000E-5	0.942522
3.360000E-5	0.942728
3.440000E-5	0.942673
3.520000E-5	0.942751
3.600000E-5	0.942505
3.680000E-5	0.942752
3.760000E-5	0.942592
3.840000E-5	0.941883
3.920000E-5	0.938291
4.000000E-5	0.939953
4.080000E-5	0.937782
4.160000E-5	0.941367
4.240000E-5	0.940210
4.320000E-5	0.940447
4.400000E-5	0.938226
4.480000E-5	0.938215
4.560000E-5	0.937379
4.640000E-5	0.936761
4.720000E-5	0.939745
4.800000E-5	0.939086
4.880000E-5	0.938727
4.960000E-5	0.934338
5.040000E-5	0.937218
5.120000E-5	0.935970
5.280000E-5	0.935159
5.440000E-5	0.933167
5.600000E-5	0.932547
5.760000E-5	0.930166
5.920000E-5	0.931647
6.080000E-5	0.928676
6.240000E-5	0.929712
6.400000E-5	0.929196
6.560000E-5	0.925831
6.720000E-5	0.926402
6.880000E-5	0.925528
7.040000E-5	0.923060
7.200000E-5	0.923836
7.360000E-5	0.921504
7.520000E-5	0.924428
7.680000E-5	0.920063
7.840000E-5	0.922209
8.000000E-5	0.920363
8.160000E-5	0.918593
8.320000E-5	0.915077
8.480000E-5	0.916846
8.640000E-5	0.916861
8.800000E-5	0.915276
8.960000E-5	0.914835
9.120000E-5	0.914611
9.280000E-5	0.914056
9.440000E-5	0.911143
9.600000E-5	0.910968
9.760000E-5	0.910123
9.920000E-5	0.911067
0.000101	0.910013
0.000102	0.907799
0.000106	0.906318
0.000109	0.905119
0.000112	0.904198
0.000115	0.900696
0.000118	0.900277
0.000122	0.898479
0.000125	0.896217
0.000128	0.895584
0.000131	0.894960
0.000134	0.890949
0.000138	0.888581
0.000141	0.888103
0.000144	0.887397
0.000147	0.883889
0.000150	0.884213
0.000154	0.880587
0.000157	0.880560
0.000160	0.878498
0.000163	0.875385
0.000166	0.875783
0.000170	0.874103
0.000173	0.872543
0.000176	0.870773
0.000179	0.870247
0.000182	0.867012
0.000186	0.866416
0.000189	0.863775
0.000192	0.862042
0.000195	0.859923
0.000198	0.858191
0.000202	0.857893
0.000205	0.857120
0.000211	0.852542
0.000218	0.849508
0.000224	0.847123
0.000230	0.843707
0.000237	0.840906
0.000243	0.837158
0.000250	0.834140
0.000256	0.830508
0.000262	0.826621
0.000269	0.824816
0.000275	0.821532
0.000282	0.818969
0.000288	0.814741
0.000294	0.812899
0.000301	0.808627
0.000307	0.805687
0.000314	0.802867
0.000320	0.799899
0.000326	0.796953
0.000333	0.793646
0.000339	0.790361
0.000346	0.786960
0.000352	0.784586
0.000358	0.781298
0.000365	0.776939
0.000371	0.775659
0.000378	0.772710
0.000384	0.770437
0.000390	0.766130
0.000397	0.762912
0.000403	0.760418
0.000410	0.757281
0.000422	0.751374
0.000435	0.745073
0.000448	0.739686
0.000461	0.733705
0.000474	0.728227
0.000486	0.721675
0.000499	0.716980
0.000512	0.710291
0.000525	0.705221
0.000538	0.700075
0.000550	0.694212
0.000563	0.688355
0.000576	0.682736
0.000589	0.677421
0.000602	0.671681
0.000614	0.666787
0.000627	0.660888
0.000640	0.655218
0.000653	0.650028
0.000666	0.644457
0.000678	0.639859
0.000691	0.634526
0.000704	0.629421
0.000717	0.624122
0.000730	0.619241
0.000742	0.614207
0.000755	0.608607
0.000768	0.603118
0.000781	0.598519
0.000794	0.593525
0.000806	0.588875
0.000819	0.584080
0.000845	0.574578
0.000870	0.564536
0.000896	0.555492
0.000922	0.546356
0.000947	0.537793
0.000973	0.528124
0.000998	0.519359
0.001024	0.511421
0.001050	0.502789
0.001075	0.494161
0.001101	0.486545
0.001126	0.478489
0.001152	0.471167
0.001178	0.463682
0.001203	0.456191
0.001229	0.449185
0.001254	0.442010
0.001280	0.434983
0.001306	0.427913
0.001331	0.421023
0.001357	0.414407
0.001382	0.408417
0.001408	0.401873
0.001434	0.395693
0.001459	0.389118
0.001485	0.383001
0.001510	0.377697
0.001536	0.371451
0.001562	0.366117
0.001587	0.360091
0.001613	0.355123
0.001638	0.349501
0.001690	0.338733
0.001741	0.328454
0.001792	0.318791
0.001843	0.308858
0.001894	0.299523
0.001946	0.290651
0.001997	0.281560
0.002048	0.273511
0.002099	0.265189
0.002150	0.257143
0.002202	0.248810
0.002253	0.241615
0.002304	0.234448
0.002355	0.226726
0.002406	0.219583
0.002458	0.212851
0.002509	0.206500
0.002560	0.199740
0.002611	0.193308
0.002662	0.187555
0.002714	0.182636
0.002765	0.177363
0.002816	0.172792
0.002867	0.167943
0.002918	0.163101
0.002970	0.158526
0.003021	0.154452
0.003072	0.150136
0.003123	0.145877
0.003174	0.141919
0.003226	0.138135
0.003277	0.134570
0.003379	0.127388
0.003482	0.121126
0.003584	0.114865
0.003686	0.109584
0.003789	0.104258
0.003891	0.098914
0.003994	0.095137
0.004096	0.091239
0.004198	0.087592
0.004301	0.083736
0.004403	0.080417
0.004506	0.077089
0.004608	0.074219
0.004710	0.071141
0.004813	0.068687
0.004915	0.066161
0.005018	0.063519
0.005120	0.061220
0.005222	0.058130
0.005325	0.055753
0.005427	0.053635
0.005530	0.051696
0.005632	0.049861
0.005734	0.047442
0.005837	0.045553
0.005939	0.043960
0.006042	0.042619
0.006144	0.040716
0.006246	0.039983
0.006349	0.038900
0.006451	0.038536
0.006554	0.037983
0.006758	0.035871
0.006963	0.033809
0.007168	0.032057
0.007373	0.030947
0.007578	0.030783
0.007782	0.030104
0.007987	0.028948
0.008192	0.028361
0.008397	0.027696
0.008602	0.026987
0.008806	0.026331
0.009011	0.025055
0.009216	0.024254
0.009421	0.023048
0.009626	0.021468
0.009830	0.020277
0.010035	0.019780
0.010240	0.018646
0.010445	0.017313
0.010650	0.015893
0.010854	0.013263
0.011059	0.010753
0.011264	0.009380
0.011469	0.008143
0.011674	0.008220
0.011878	0.008658
0.012083	0.009577
0.012288	0.010980
0.012493	0.011779
0.012698	0.011877
0.012902	0.011440
0.013107	0.010491
0.013517	0.011377
0.013926	0.012531
0.014336	0.010348
0.014746	0.008766
0.015155	0.006423
0.015565	0.003454
0.015974	0.001981
0.016384	0.002297
0.016794	0.002319
0.017203	0.001282
0.017613	-0.000138
0.018022	-0.002287
0.018432	-0.003532
0.018842	-0.005422
0.019251	-0.005623
0.019661	-0.003594
0.020070	-0.000101
0.020480	0.002335
0.020890	0.003976
0.021299	0.005364
0.021709	0.005503
0.022118	0.005403
0.022528	0.006220
0.022938	0.006393
0.023347	0.005928
0.023757	0.005581
0.024166	0.004725
0.024576	0.003542
0.024986	0.001523
0.025395	-1.516102E-5
0.025805	0.000148
0.026214	0.002343
0.027034	0.001696
0.027853	0.002783
0.028672	0.004435
0.029491	0.004553
0.030310	0.002462
0.031130	-0.000839
0.031949	-0.001978
0.032768	0.003450
0.033587	0.007829
0.034406	0.009833
0.035226	0.008380
0.036045	0.007422
0.036864	0.003776
0.037683	-0.001701
0.038502	-0.000684
0.039322	-0.000574
0.040141	-0.002457
0.040960	-0.007872
0.041779	-0.012605
0.042598	-0.012345
0.043418	-0.007907
0.044237	-0.006500
0.045056	-0.002304
0.045875	-0.000727
0.046694	0.001176
0.047514	0.004201
0.048333	0.004409
0.049152	0.004064
0.049971	-0.003101
0.050790	-0.005320
0.051610	-0.005105
0.052429	-0.008926
0.054067	-0.016584
0.055706	-0.012256
0.057344	-0.007410
0.058982	-0.008517
0.060621	-0.012181
0.062259	-0.015477
0.063898	-0.006800
0.065536	-0.005232
0.067174	-0.005750
0.068813	0.002618
0.070451	0.006665
0.072090	0.004445
0.073728	0.002355
0.075366	-0.005947
0.077005	-0.007227
0.078643	0.004348
0.080282	0.007736
0.081920	0.005578
0.083558	0.001412
0.085197	0.003388
0.086835	0.002736
0.088474	-0.003049
0.090112	0.003857
0.091750	0.014675
0.093389	0.010114
0.095027	-0.000392
0.096666	0.001235
0.098304	0.000939
0.099942	-0.002711
0.101581	-0.004725
0.103219	-0.003411
0.104858	-0.005153
0.108134	-0.000759
0.111411	-0.003080
0.114688	0.005693
0.117965	0.009862
0.121242	-0.003584
0.124518	0.001501
0.127795	-0.004984
0.131072	0.002040
0.134349	0.017825
0.137626	0.011940
0.140902	0.008505
0.144179	-0.003939
0.147456	-0.004737
0.150733	0.014866
0.154010	0.013871
0.157286	0.003226
0.160563	0.007244
0.163840	-0.000495
0.167117	0.006247
0.170394	0.003915
0.173670	-0.002779
0.176947	-0.002602
0.180224	-0.005184
0.183501	-0.003655
0.186778	-0.008624
0.190054	-0.006531
0.193331	0.003706
0.196608	0.003192
0.199885	0.002982
0.203162	0.001424
0.206438	-0.007650
0.209715	-0.001524
0.216269	-0.004092
0.222822	-0.002140
0.229376	0.009696
0.235930	0.005461
0.242483	0.012905
0.249037	0.002207
0.255590	-0.014679
0.262144	-0.005240
0.268698	-0.000605
0.275251	0.007323
0.281805	-0.005616
0.288358	0.002567
0.294912	-0.002497
0.301466	-0.008494
0.308019	-0.007437
0.314573	-0.003098
0.321126	-0.001556
0.327680	0.005504
0.334234	0.005036
0.340787	-0.005089
0.347341	-0.006949
0.353894	0.014615
0.360448	0.010501
0.367002	0.003325
0.373555	-0.006886
0.380109	-0.003008
0.386662	-0.003881
0.393216	-0.001898
0.399770	0.013035
0.406323	-0.001732
0.412877	-0.000744
0.419430	-0.001826
0.432538	-0.002212
0.445645	0.000575
0.458752	0.002217
0.471859	-0.001792
0.484966	-0.001574
0.498074	-0.000923
0.511181	-0.004943
0.524288	-0.004024
0.537395	0.003144
0.550502	-0.002031
0.563610	-0.008382
0.576717	0.005872
0.589824	-0.003945
0.602931	-0.000846
0.616038	-0.000666
0.629146	-0.005228
0.642253	-0.001255
0.655360	0.001964
0.668467	-0.010562
0.681574	-0.004334
0.694682	0.003601
0.707789	0.000715
0.720896	-0.000658
0.734003	0.007925
0.747110	0.000285
0.760218	-0.004074
0.773325	-0.002896
0.786432	-4.586599E-5
0.799539	-0.000205
0.812646	0.012673
0.825754	0.009404
0.838861	0.011722
0.865075	0.008114
0.891290	-0.004861
0.917504	-0.008819
0.943718	0.004063
0.969933	0.002627
0.996147	0.003298
1.022362	0.003969
1.048576	-0.001687
1.074790	0.000328
1.101005	0.001955
1.127219	-0.006924
1.153434	0.003082
1.179648	-0.000732
1.205862	-0.005662
1.232077	-0.004625
1.258291	-0.000939
1.284506	-0.000437
1.310720	-0.001516
1.336934	0.000133
1.363149	-0.005328
1.389363	0.000478
1.415578	-0.000127
1.441792	-0.002463
1.468006	0.004632
1.494221	0.000929
1.520435	-0.002153
1.546650	0.003250
1.572864	0.001149
1.599078	-0.000822
1.625293	-0.001871
1.651507	-0.001054
1.677722	0.002349
1.730150	0.004448
1.782579	-0.000405
1.835008	0.003132
1.887437	-0.003456
1.939866	0.001191
1.992294	-0.002141
2.044723	-0.002014
2.097152	-0.002191
2.149581	-0.001099
2.202010	-0.006127
2.254438	-0.002491
2.306867	-0.003195
2.359296	-0.005601
2.411725	0.002866
2.464154	0.000377
2.516582	-0.007250
2.569011	0.004240
2.621440	-0.001482
2.673869	0.008574
2.726298	0.002008
2.778726	0.001619
2.831155	-0.002606
2.883584	0.004090
2.936013	0.001530
2.988442	0.001903
3.040870	-0.005198
3.093299	-0.000313
3.145728	-0.000171
3.198157	0.001866
3.250586	0.002232
3.303015	0.002656
3.355443	-0.000601
3.460301	0.001553
3.565158	0.001833
3.670016	0.001011
3.774873	-0.002204
3.879731	-0.003557
3.984589	-0.003192
4.089447	-0.000781
4.194304	-0.004647
4.299161	0.003461
4.404019	-0.000803
4.508877	0.002961
4.613734	-0.002353
4.718592	-0.001989
4.823450	-0.004857
4.928307	0.003980
5.033165	-0.005170
5.138022	-0.000333
5.242880	-0.002226
5.347738	0.004046
5.452595	-0.006790
5.557453	0.001770
5.662311	0.001193
5.767168	0.000638
5.872025	-0.004969
5.976883	0.001666
6.081741	-0.000432
6.186598	-0.001516
6.291456	-0.004985
6.396314	-0.002537
6.501171	-0.002259
6.606029	-0.000255
6.710886	0.001527
6.920601	-0.000323
7.130317	-0.000874
7.340032	-0.001117
7.549747	-0.000828
7.759462	0.002979
7.969178	0.001104
8.178893	-0.000942
8.388608	-0.000595
8.598323	0.003453
8.808039	0.002056
9.017754	-0.003631
9.227468	0.002792
9.437184	0.003979
9.646899	-0.002473
9.856614	-0.002651
10.066330	0.002884
10.276045	-0.000523
10.485760	0.000172
10.695476	0.001010
10.905190	0.003438
11.114905	0.003759
11.324621	-0.000924
11.534336	0.000397
11.744051	-0.003075
11.953767	0.002108
12.163482	0.005165
12.373197	0.000529
12.582912	0.003979
12.792627	-0.002111
13.002342	-0.001204
13.212058	-0.005386
13.421773	-0.004538
13.841203	0.004612
14.260633	-0.004415
14.680064	0.002220
15.099494	-0.001933
15.518925	0.006088
15.938355	-0.002027
16.357786	-0.000178
16.777216	-0.001918
17.196646	0.001956
17.616077	0.000885
18.035507	-0.002665
18.454937	0.001405
18.874369	0.000000
19.293798	NaN
19.713228	NaN
20.132660	NaN
20.552090	NaN
20.971519	NaN
21.390951	NaN
21.810381	NaN
22.229811	NaN
22.649242	NaN
23.068672	NaN
23.488102	NaN
23.907534	NaN
24.326963	NaN
24.746393	NaN
25.165825	NaN
25.585255	NaN
26.004684	NaN
26.424116	NaN
26.843546	NaN
27.682405	NaN
28.521267	NaN
29.360128	NaN
30.198988	NaN
31.037849	NaN
31.876711	NaN
32.715572	NaN
33.554432	NaN
34.393291	NaN
35.232155	NaN
36.071014	NaN
36.909874	NaN
37.748737	NaN
38.587597	NaN
39.426456	NaN
40.265320	NaN
41.104179	NaN
41.943039	NaN
42.781902	NaN
43.620762	NaN
44.459621	NaN
45.298485	NaN
46.137344	NaN
46.976204	NaN
47.815067	NaN
48.653927	NaN
49.492786	NaN
50.331650	NaN
51.170509	NaN
52.009369	NaN
52.848232	NaN
53.687092	NaN
55.364811	NaN
57.042534	NaN
58.720257	NaN
60.397976	NaN
62.075699	NaN
63.753422	NaN
65.431145	NaN
67.108864	NaN
68.786583	NaN
70.464310	NaN
72.142029	NaN
73.819748	NaN
75.497475	NaN
77.175194	NaN
78.852913	NaN
80.530640	NaN
82.208359	NaN
83.886078	NaN
85.563805	NaN
87.241524	NaN
88.919243	NaN
90.596970	NaN
92.274689	NaN
93.952408	NaN
95.630135	NaN
97.307854	NaN
98.985573	NaN
100.663300	NaN
102.341019	NaN
104.018738	NaN
105.696465	NaN
107.374184	NaN
110.729622	NaN
114.085068	NaN
117.440514	NaN
120.795952	NaN
124.151398	NaN
127.506844	NaN
130.862289	NaN
134.217728	NaN
137.573166	NaN
140.928619	NaN
144.284058	NaN
147.639496	NaN
150.994949	NaN
154.350388	NaN
157.705826	NaN
161.061279	NaN
164.416718	NaN
167.772156	NaN
171.127609	NaN
174.483047	NaN
177.838486	NaN
181.193939	NaN
184.549377	NaN
187.904816	NaN
191.260269	NaN
194.615707	NaN
197.971146	NaN
201.326599	NaN
204.682037	NaN
208.037476	NaN
211.392929	NaN
214.748367	NaN
221.459244	NaN
228.170135	NaN
234.881027	NaN
241.591904	NaN
248.302795	NaN
255.013687	NaN
261.724579	NaN
268.435455	NaN
275.146332	NaN
281.857239	NaN
288.568115	NaN
295.278992	NaN
301.989899	NaN
308.700775	NaN
315.411652	NaN
322.122559	NaN
328.833435	NaN
335.544312	NaN
342.255219	NaN
348.966095	NaN
355.676971	NaN
362.387878	NaN
369.098755	NaN
375.809631	NaN
382.520538	NaN
389.231415	NaN
395.942291	NaN
402.653198	NaN
409.364075	NaN
416.074951	NaN
422.785858	NaN
429.496735	NaN
442.918488	NaN
456.340271	NaN
469.762054	NaN
483.183807	NaN
496.605591	NaN
510.027374	NaN
523.449158	NaN
536.870911	NaN
550.292664	NaN
563.714478	NaN
577.136230	NaN
590.557983	NaN
603.979797	NaN
617.401550	NaN
630.823303	NaN
644.245117	NaN
657.666870	NaN
671.088623	NaN
684.510437	NaN
697.932190	NaN
711.353943	NaN
724.775757	NaN
738.197510	NaN
751.619263	NaN
765.041077	NaN
778.462830	NaN
791.884583	NaN
805.306396	NaN
818.728149	NaN
832.149902	NaN
845.571716	NaN
858.993469	NaN
885.836975	NaN
912.680542	NaN
939.524109	NaN
966.367615	NaN
993.211182	NaN
1020.054749	NaN
1046.898315	NaN
1073.741821	NaN
1100.585327	NaN
1127.428955	NaN
1154.272461	NaN
1181.115967	NaN
1207.959595	NaN
1234.803101	NaN
1261.646606	NaN
1288.490234	NaN
1315.333740	NaN
1342.177246	NaN
1369.020874	NaN
1395.864380	NaN
1422.707886	NaN
1449.551514	NaN
1476.395020	NaN
1503.238525	NaN
1530.082153	NaN
1556.925659	NaN
1583.769165	NaN
1610.612793	NaN
1637.456299	NaN
1664.299805	NaN
1691.143433	NaN
1717.986938	NaN
1771.673950	NaN
1825.361084	NaN
1879.048218	NaN
1932.735229	NaN
1986.422363	NaN
2040.109497	NaN
2093.796631	NaN
2147.483643	NaN
2201.170654	NaN
2254.857910	NaN
2308.544922	NaN
2362.231934	NaN
2415.919189	NaN
2469.606201	NaN
2523.293213	NaN
2576.980469	NaN
2630.667480	NaN
2684.354492	NaN
2738.041748	NaN
2791.728760	NaN
2845.415771	NaN
2899.103027	NaN
2952.790039	NaN
3006.477051	NaN
3060.164307	NaN
3113.851318	NaN
3167.538330	NaN
3221.225586	NaN
3274.912598	NaN
3328.599609	NaN
3382.286865	NaN
3435.973877	NaN
0.000000	NaN
0.000000	NaN
0.000000	NaN
0.000000	NaN
0.000000	NaN
0.000000	NaN
0.000000	NaN
0.000000	NaN
0.000000	NaN
0.000000	NaN
0.000000	NaN
0.000000	NaN
0.000000	NaN
0.000000	NaN
0.000000	NaN
0.000000	NaN
0.000000	NaN
0.000000	NaN
0.000000	NaN
0.000000	NaN
0.000000	NaN
0.000000	NaN
0.000000	NaN
0.000000	NaN
0.000000	NaN
0.000000	NaN
0.000000	NaN
0.000000	NaN
0.000000	NaN
0.000000	NaN
0.000000	NaN
0.000000	NaN

Count Rate History (KHz)  CR CHA / CR CHB
0.000000	215.444565	215.244293
0.104858	226.688385	236.349106
0.209715	172.891617	180.320740
0.314573	176.277161	191.974640
0.419430	229.063034	239.992142
0.524288	233.440399	245.685577
0.629146	243.806839	252.399445
0.734003	301.723480	322.389603
0.838861	223.712921	238.666534
0.943718	211.477280	222.425461
1.048576	207.281113	222.320557
1.153434	233.812332	246.143341
1.258291	199.747086	216.999054
1.363149	298.318863	313.529968
1.468006	212.926865	226.325989
1.572864	277.194977	291.090012
1.677722	238.676071	258.932114
1.782579	168.104172	166.835785
1.887437	151.472092	157.127380
1.992294	171.642303	180.358887
2.097152	157.222748	163.650513
2.202010	186.920166	194.816589
2.306867	176.477432	198.574066
2.411725	178.995132	183.248520
2.516582	244.255066	249.977112
2.621440	237.064362	247.707367
2.726298	194.158554	199.785233
2.831155	198.688507	206.222534
2.936013	151.739120	158.977509
3.040870	244.112015	257.759094
3.145728	200.481415	211.811066
3.250586	131.759644	134.887695
3.355443	130.100250	140.514374
3.460301	183.429718	189.247131
3.565158	212.450027	229.768753
3.670016	225.048065	226.583481
3.774874	197.572708	213.775635
3.879731	235.328674	239.839554
3.984589	213.022232	222.263336
4.089446	225.648880	240.039825
4.194304	214.586258	246.820450
4.299162	203.056335	201.377869
4.404019	188.064575	208.654404
4.508877	306.119919	309.286118
4.613734	198.545456	207.710266
4.718592	187.988281	204.992294
4.823450	205.249786	209.484100
4.928307	185.194016	193.462372
5.033165	220.355988	233.535767
5.138022	163.869858	171.861649
5.242880	199.003220	218.200684
5.347738	177.211761	177.354813
5.452595	214.090347	239.944458
5.557453	194.416046	193.109512
5.662310	184.116364	221.881866
5.767168	250.082016	229.644775
5.872026	178.289413	193.634033
5.976883	203.227997	208.463669
6.081741	211.315155	219.974518
6.186598	199.518204	218.477249
6.291456	273.275375	290.184021
6.396314	168.447495	172.500610
6.501171	208.692551	224.561691
6.606029	190.420151	197.095871
6.710886	270.872116	281.171799
6.815744	204.448700	219.116211
6.920602	167.932510	171.041489
7.025459	170.917511	180.959702
7.130317	239.381790	250.139236
7.235174	236.864090	241.565704
7.340032	257.282257	277.214050
7.444890	241.804123	251.998901
7.549747	197.038651	208.635330
7.654605	177.373886	187.635422
7.759462	193.328857	201.511383
7.864320	185.861588	196.533203
7.969178	169.982910	181.026459
8.074035	264.568329	276.880264
8.178893	284.452438	297.107697
8.283750	159.873962	171.203613
8.388608	316.267014	330.753326
8.493466	213.813782	224.113464
8.598323	213.899612	220.069885
8.703181	175.323486	189.113617
8.808038	217.180252	246.963501
8.912896	232.505798	221.967697
9.017754	214.109421	233.020782
9.122611	226.440430	235.290527
9.227469	266.876221	282.535553
9.332326	260.076523	283.346176
9.437184	227.642059	229.988098
9.542042	238.800049	252.923965
9.646899	187.749863	200.672150
9.751757	213.766098	228.290558
9.856614	261.278152	259.351730
9.961472	273.199081	292.587280
10.066330	191.869736	215.129852
10.171187	303.964615	307.588577
10.276045	146.484375	156.812668
10.380902	195.264816	198.497772
10.485760	162.305832	171.089172
10.590618	224.914551	239.162445
10.695475	174.932480	186.595917
10.800333	259.227753	285.053253
10.905190	180.225372	172.376633
11.010048	214.405060	224.084854
11.114906	188.655853	199.041367
11.219763	202.798843	213.699341
11.324621	198.898315	218.925476
11.429478	172.319412	165.920258
11.534336	176.677704	188.007355
11.639194	247.020721	261.135101
11.744051	229.663849	252.981186
11.848909	300.502777	308.151245
11.953766	192.909241	201.759338
12.058624	192.213058	189.647675
12.163482	249.538422	267.601013
12.268339	152.359009	166.234970
12.373197	217.437744	217.132568
12.478054	213.012695	231.199265
12.582912	223.617554	235.300064
12.687770	207.509995	215.349197
12.792627	207.509995	215.711594
12.897485	233.325958	264.539719
13.002342	208.768845	204.076767
13.107200	208.339691	213.088989
13.212058	157.270432	180.702209
13.316915	270.090103	268.840790
13.421773	204.572678	212.926865
13.526630	183.610916	198.822021
13.631488	190.696716	196.390152
13.736346	282.411575	295.381546
13.841203	215.673447	225.896835
13.946061	158.805847	157.127380
14.050918	183.219910	192.718506
14.155776	210.905075	222.606659
14.260634	161.914825	178.060532
14.365491	181.236267	182.704926
14.470349	233.182907	249.700546
14.575206	244.531631	258.951187
14.680064	169.391632	176.868439
14.784922	189.800262	207.099915
14.889779	191.392899	195.665359
14.994637	164.117813	179.853439
15.099494	313.882828	329.055786
15.204352	240.602493	252.609253
15.309210	187.187195	197.935104
15.414067	249.557495	261.697769
15.518925	200.424194	217.275620
15.623782	137.701035	142.049789
15.728640	178.613663	197.668076
15.833498	162.553787	163.202286
15.938355	284.452438	303.888321
16.043213	150.976181	163.831711
16.148070	232.973099	256.156921
16.252928	221.967697	210.065842
16.357786	212.211609	218.801498
16.462643	184.192657	202.789307
16.567501	248.212814	259.790421
16.672358	233.373642	249.557495
16.777216	248.174667	263.977051
16.882074	194.568634	209.722519
16.986931	206.365585	209.522247
17.091789	216.474533	224.876404
17.196646	167.894363	171.327591
17.301504	208.778381	218.219757
17.406362	177.040100	182.762146
17.511219	187.053680	202.646255
17.616077	166.702271	185.632706
17.720934	198.297501	198.297501
17.825792	272.359848	279.741287
17.930650	196.952820	213.212967
18.035507	180.883408	190.658569
18.140365	256.834030	269.403458
18.245222	201.158524	209.150314
18.350080	225.830078	236.797333
18.454938	186.281204	200.195312
18.559795	190.982819	205.402374
18.664653	217.924118	220.994949
18.769510	204.496384	219.993591
18.874368	189.800262	189.371109
18.979226	247.745514	259.866714
19.084083	210.809708	224.418640
19.188941	171.947479	193.157196
19.293798	248.146057	253.658295
19.398656	378.017426	390.596390
19.503514	247.497559	258.865356
19.608371	183.725357	194.253922
19.713229	250.005722	278.587341
