1/9/2026	1:53 PM
Pseudo Cross Correlation
Scattering angle:	130.0
Duration (s):	20
Wavelength (nm):	632.8
Refractive index:	1.330
Viscosity (mPas):	0.711
Temperature (K):	308.7
Laser intensity (mW):	2.638727
Average Count rate  A (kHz):	115.2
Average Count rate  B (kHz):	117.7
Intercept:	0.7696
Cumulant 1st	399.38
Cumulant 2nd	457.29	210.80
Cumulant 3rd	497.90	392.25

Lag time (s)         g2-1
1.250000E-8	0.802492
2.500000E-8	0.802492
3.750000E-8	0.788211
5.000000E-8	0.759349
6.250000E-8	0.753696
7.500000E-8	0.755779
8.750000E-8	0.742985
1.000000E-7	0.771548
1.125000E-7	0.766490
1.250000E-7	0.782557
1.375000E-7	0.788806
1.500000E-7	0.764407
1.625000E-7	0.798327
1.750000E-7	0.764705
1.875000E-7	0.732868
2.000000E-7	0.745365
2.125000E-7	0.782260
2.250000E-7	0.762622
2.375000E-7	0.744770
2.500000E-7	0.782855
2.625000E-7	0.760837
2.750000E-7	0.767978
2.875000E-7	0.744472
3.000000E-7	0.822428
3.125000E-7	0.741497
3.250000E-7	0.717099
3.375000E-7	0.775119
3.500000E-7	0.741497
3.625000E-7	0.724537
3.750000E-7	0.764110
3.875000E-7	0.786425
4.000000E-7	0.767680
4.125000E-7	0.791484
4.250000E-7	0.764110
4.375000E-7	0.790888
4.500000E-7	0.769168
4.625000E-7	0.774226
4.750000E-7	0.786128
4.875000E-7	0.798327
5.000000E-7	0.785235
5.125000E-7	0.764407
5.250000E-7	0.811419
5.375000E-7	0.750721
5.500000E-7	0.781665
5.625000E-7	0.773334
5.750000E-7	0.845933
5.875000E-7	0.758754
6.000000E-7	0.788806
6.125000E-7	0.756076
6.250000E-7	0.814692
6.375000E-7	0.738224
6.500000E-7	0.777499
6.625000E-7	0.784938
6.750000E-7	0.747448
6.875000E-7	0.793566
7.000000E-7	0.787913
7.125000E-7	0.787318
7.250000E-7	0.736141
7.375000E-7	0.773631
7.500000E-7	0.748935
7.625000E-7	0.744770
7.750000E-7	0.765300
7.875000E-7	0.758754
8.000000E-7	0.742092
8.250000E-7	0.766341
8.500000E-7	0.759349
8.750000E-7	0.751316
9.000000E-7	0.761581
9.250000E-7	0.765895
9.500000E-7	0.765300
9.750000E-7	0.763812
1.000000E-6	0.745960
1.025000E-6	0.764110
1.050000E-6	0.773036
1.075000E-6	0.748489
1.100000E-6	0.774673
1.125000E-6	0.766937
1.150000E-6	0.762176
1.175000E-6	0.759201
1.200000E-6	0.746853
1.225000E-6	0.770953
1.250000E-6	0.729298
1.275000E-6	0.796393
1.300000E-6	0.745067
1.325000E-6	0.751018
1.350000E-6	0.777648
1.375000E-6	0.753398
1.400000E-6	0.786574
1.425000E-6	0.785533
1.450000E-6	0.767978
1.475000E-6	0.764407
1.500000E-6	0.798624
1.525000E-6	0.782855
1.550000E-6	0.753845
1.575000E-6	0.757415
1.600000E-6	0.773631
1.650000E-6	0.779284
1.700000E-6	0.750349
1.750000E-6	0.759126
1.800000E-6	0.765821
1.850000E-6	0.763217
1.900000E-6	0.760539
1.950000E-6	0.751316
2.000000E-6	0.787764
2.050000E-6	0.746406
2.100000E-6	0.771325
2.150000E-6	0.760391
2.200000E-6	0.761581
2.250000E-6	0.749828
2.300000E-6	0.739191
2.350000E-6	0.749530
2.400000E-6	0.782706
2.450000E-6	0.764854
2.500000E-6	0.763961
2.550000E-6	0.768647
2.600000E-6	0.760242
2.650000E-6	0.770581
2.700000E-6	0.766639
2.750000E-6	0.751836
2.800000E-6	0.772887
2.850000E-6	0.783524
2.900000E-6	0.754663
2.950000E-6	0.765895
3.000000E-6	0.763589
3.050000E-6	0.753845
3.100000E-6	0.753547
3.150000E-6	0.759498
3.200000E-6	0.750051
3.300000E-6	0.770916
3.400000E-6	0.769168
3.500000E-6	0.766118
3.600000E-6	0.759312
3.700000E-6	0.763478
3.800000E-6	0.754068
3.900000E-6	0.765523
4.000000E-6	0.766007
4.100000E-6	0.762176
4.200000E-6	0.765040
4.300000E-6	0.766937
4.400000E-6	0.762213
4.500000E-6	0.767160
4.600000E-6	0.765895
4.700000E-6	0.754551
4.800000E-6	0.779545
4.900000E-6	0.771548
5.000000E-6	0.769280
5.100000E-6	0.759498
5.200000E-6	0.763924
5.300000E-6	0.782223
5.400000E-6	0.776755
5.500000E-6	0.763031
5.600000E-6	0.756299
5.700000E-6	0.764073
5.800000E-6	0.764333
5.900000E-6	0.770247
6.000000E-6	0.766602
6.100000E-6	0.764593
6.200000E-6	0.764928
6.300000E-6	0.748080
6.400000E-6	0.763626
6.600000E-6	0.767606
6.800000E-6	0.768368
7.000000E-6	0.762325
7.200000E-6	0.759331
7.400000E-6	0.767271
7.600000E-6	0.764240
7.800000E-6	0.768313
8.000000E-6	0.759033
8.200000E-6	0.760539
8.400000E-6	0.773687
8.600000E-6	0.761079
8.800000E-6	0.763831
9.000000E-6	0.761562
9.200000E-6	0.773501
9.400000E-6	0.764631
9.600000E-6	0.765988
9.800000E-6	0.752376
1.000000E-5	0.763794
1.020000E-5	0.766620
1.040000E-5	0.767532
1.060000E-5	0.761116
1.080000E-5	0.762752
1.100000E-5	0.760428
1.120000E-5	0.756783
1.140000E-5	0.750609
1.160000E-5	0.752989
1.180000E-5	0.770395
1.200000E-5	0.762511
1.220000E-5	0.763143
1.240000E-5	0.772534
1.260000E-5	0.753194
1.280000E-5	0.754793
1.320000E-5	0.761023
1.360000E-5	0.763478
1.400000E-5	0.755807
1.440000E-5	0.751074
1.480000E-5	0.758336
1.520000E-5	0.756904
1.560000E-5	0.756532
1.600000E-5	0.755862
1.640000E-5	0.760651
1.680000E-5	0.759238
1.720000E-5	0.756746
1.760000E-5	0.757313
1.800000E-5	0.749354
1.840000E-5	0.759228
1.880000E-5	0.760744
1.920000E-5	0.753491
1.960000E-5	0.763664
2.000000E-5	0.752803
2.040000E-5	0.754180
2.080000E-5	0.756718
2.120000E-5	0.753110
2.160000E-5	0.754737
2.200000E-5	0.754728
2.240000E-5	0.747717
2.280000E-5	0.753584
2.320000E-5	0.758782
2.360000E-5	0.758968
2.400000E-5	0.755825
2.440000E-5	0.748145
2.480000E-5	0.756411
2.520000E-5	0.752813
2.560000E-5	0.754310
2.640000E-5	0.751376
2.720000E-5	0.757987
2.800000E-5	0.755993
2.880000E-5	0.750609
2.960000E-5	0.748447
3.040000E-5	0.749935
3.120000E-5	0.751562
3.200000E-5	0.752176
3.280000E-5	0.755621
3.360000E-5	0.749456
3.440000E-5	0.748656
3.520000E-5	0.741260
3.600000E-5	0.744240
3.680000E-5	0.745551
3.760000E-5	0.745360
3.840000E-5	0.747401
3.920000E-5	0.744695
4.000000E-5	0.742008
4.080000E-5	0.743724
4.160000E-5	0.745286
4.240000E-5	0.747234
4.320000E-5	0.747987
4.400000E-5	0.744417
4.480000E-5	0.745411
4.560000E-5	0.739647
4.640000E-5	0.739572
4.720000E-5	0.742747
4.800000E-5	0.740934
4.880000E-5	0.742064
4.960000E-5	0.742696
5.040000E-5	0.738549
5.120000E-5	0.738401
5.280000E-5	0.740941
5.440000E-5	0.738940
5.600000E-5	0.737668
5.760000E-5	0.734795
5.920000E-5	0.734489
6.080000E-5	0.735221
6.240000E-5	0.738470
6.400000E-5	0.733926
6.560000E-5	0.733821
6.720000E-5	0.728288
6.880000E-5	0.727424
7.040000E-5	0.728674
7.200000E-5	0.728480
7.360000E-5	0.724688
7.520000E-5	0.726236
7.680000E-5	0.725163
7.840000E-5	0.721659
8.000000E-5	0.724737
8.160000E-5	0.723054
8.320000E-5	0.721876
8.480000E-5	0.718761
8.640000E-5	0.722165
8.800000E-5	0.717924
8.960000E-5	0.719011
9.120000E-5	0.721708
9.280000E-5	0.716854
9.440000E-5	0.714637
9.600000E-5	0.716466
9.760000E-5	0.709886
9.920000E-5	0.714796
0.000101	0.707216
0.000102	0.714989
0.000106	0.709674
0.000109	0.707724
0.000112	0.706105
0.000115	0.704007
0.000118	0.705023
0.000122	0.702235
0.000125	0.699579
0.000128	0.698680
0.000131	0.696118
0.000134	0.694690
0.000138	0.694017
0.000141	0.690745
0.000144	0.688287
0.000147	0.688082
0.000150	0.688724
0.000154	0.686975
0.000157	0.685214
0.000160	0.681694
0.000163	0.680919
0.000166	0.676534
0.000170	0.679947
0.000173	0.674401
0.000176	0.671813
0.000179	0.672571
0.000182	0.668158
0.000186	0.669298
0.000189	0.667755
0.000192	0.663495
0.000195	0.663854
0.000198	0.661796
0.000202	0.657313
0.000205	0.656640
0.000211	0.656729
0.000218	0.652682
0.000224	0.648366
0.000230	0.645414
0.000237	0.641637
0.000243	0.638056
0.000250	0.635207
0.000256	0.630634
0.000262	0.626616
0.000269	0.626813
0.000275	0.622784
0.000282	0.618890
0.000288	0.614383
0.000294	0.610754
0.000301	0.607991
0.000307	0.605434
0.000314	0.599808
0.000320	0.598811
0.000326	0.596838
0.000333	0.591882
0.000339	0.588637
0.000346	0.584737
0.000352	0.583510
0.000358	0.580240
0.000365	0.578999
0.000371	0.574383
0.000378	0.570118
0.000384	0.567866
0.000390	0.566601
0.000397	0.562670
0.000403	0.559011
0.000410	0.554480
0.000422	0.549336
0.000435	0.544299
0.000448	0.537203
0.000461	0.530410
0.000474	0.524582
0.000486	0.518778
0.000499	0.513142
0.000512	0.507393
0.000525	0.500809
0.000538	0.496170
0.000550	0.488982
0.000563	0.484253
0.000576	0.479297
0.000589	0.472754
0.000602	0.468663
0.000614	0.462444
0.000627	0.457693
0.000640	0.451404
0.000653	0.445797
0.000666	0.441697
0.000678	0.436208
0.000691	0.431215
0.000704	0.424643
0.000717	0.420856
0.000730	0.416375
0.000742	0.410858
0.000755	0.405234
0.000768	0.401529
0.000781	0.397032
0.000794	0.391804
0.000806	0.388225
0.000819	0.382654
0.000845	0.373426
0.000870	0.364237
0.000896	0.355588
0.000922	0.346466
0.000947	0.338396
0.000973	0.329975
0.000998	0.322038
0.001024	0.314716
0.001050	0.305803
0.001075	0.299595
0.001101	0.291838
0.001126	0.284583
0.001152	0.278566
0.001178	0.271064
0.001203	0.265143
0.001229	0.258455
0.001254	0.252084
0.001280	0.245693
0.001306	0.239238
0.001331	0.234196
0.001357	0.228473
0.001382	0.222955
0.001408	0.217463
0.001434	0.211669
0.001459	0.206105
0.001485	0.200515
0.001510	0.194962
0.001536	0.190826
0.001562	0.185507
0.001587	0.180792
0.001613	0.176421
0.001638	0.172117
0.001690	0.163068
0.001741	0.154513
0.001792	0.146642
0.001843	0.139088
0.001894	0.132723
0.001946	0.124995
0.001997	0.119790
0.002048	0.113396
0.002099	0.107279
0.002150	0.102205
0.002202	0.097082
0.002253	0.093101
0.002304	0.087610
0.002355	0.083189
0.002406	0.079803
0.002458	0.076398
0.002509	0.072667
0.002560	0.069775
0.002611	0.067197
0.002662	0.064790
0.002714	0.061571
0.002765	0.059202
0.002816	0.056950
0.002867	0.054784
0.002918	0.052878
0.002970	0.050286
0.003021	0.047993
0.003072	0.046301
0.003123	0.044733
0.003174	0.042581
0.003226	0.040722
0.003277	0.040205
0.003379	0.037099
0.003482	0.035205
0.003584	0.033571
0.003686	0.031065
0.003789	0.029007
0.003891	0.027345
0.003994	0.026102
0.004096	0.025083
0.004198	0.023864
0.004301	0.022417
0.004403	0.021607
0.004506	0.020699
0.004608	0.019705
0.004710	0.018995
0.004813	0.018149
0.004915	0.017140
0.005018	0.016781
0.005120	0.015046
0.005222	0.013893
0.005325	0.012689
0.005427	0.011119
0.005530	0.010299
0.005632	0.009110
0.005734	0.008252
0.005837	0.007435
0.005939	0.007086
0.006042	0.007271
0.006144	0.007386
0.006246	0.008120
0.006349	0.008782
0.006451	0.009715
0.006554	0.010123
0.006758	0.010378
0.006963	0.010999
0.007168	0.010955
0.007373	0.010906
0.007578	0.010616
0.007782	0.010021
0.007987	0.009258
0.008192	0.008632
0.008397	0.008916
0.008602	0.009841
0.008806	0.010260
0.009011	0.011096
0.009216	0.012778
0.009421	0.013248
0.009626	0.013597
0.009830	0.013917
0.010035	0.013947
0.010240	0.013991
0.010445	0.013426
0.010650	0.014105
0.010854	0.014773
0.011059	0.015276
0.011264	0.015921
0.011469	0.016550
0.011674	0.016577
0.011878	0.015481
0.012083	0.013800
0.012288	0.012429
0.012493	0.010893
0.012698	0.009552
0.012902	0.008661
0.013107	0.008476
0.013517	0.007278
0.013926	0.004983
0.014336	0.005851
0.014746	0.009024
0.015155	0.012409
0.015565	0.012142
0.015974	0.012488
0.016384	0.010417
0.016794	0.007519
0.017203	0.004695
0.017613	0.004478
0.018022	0.005978
0.018432	0.006613
0.018842	0.007673
0.019251	0.007332
0.019661	0.009214
0.020070	0.011080
0.020480	0.011340
0.020890	0.008906
0.021299	0.006604
0.021709	0.005148
0.022118	0.004642
0.022528	0.003297
0.022938	0.004208
0.023347	0.003032
0.023757	0.000470
0.024166	-0.001400
0.024576	-0.005551
0.024986	-0.009209
0.025395	-0.011266
0.025805	-0.010401
0.026214	-0.006190
0.027034	-0.001985
0.027853	-0.000505
0.028672	-0.001092
0.029491	-0.000760
0.030310	-0.006043
0.031130	-0.009211
0.031949	-0.008603
0.032768	-0.007189
0.033587	-0.004730
0.034406	-0.003629
0.035226	-0.000695
0.036045	0.003650
0.036864	0.005289
0.037683	0.002409
0.038502	0.007642
0.039322	0.010361
0.040141	0.009114
0.040960	0.000959
0.041779	-0.002795
0.042598	-0.007257
0.043418	-0.009432
0.044237	-0.004937
0.045056	0.000269
0.045875	0.001958
0.046694	0.005814
0.047514	0.005711
0.048333	0.002533
0.049152	-0.004058
0.049971	-0.007880
0.050790	-0.007956
0.051610	-0.008667
0.052429	-0.006769
0.054067	0.002335
0.055706	0.006533
0.057344	0.007202
0.058982	-0.000189
0.060621	-0.014306
0.062259	-0.010328
0.063898	0.002196
0.065536	0.003249
0.067174	0.000619
0.068813	0.006195
0.070451	-0.000189
0.072090	-0.001085
0.073728	-0.005181
0.075366	-0.002640
0.077005	-0.004312
0.078643	-0.004866
0.080282	-0.006543
0.081920	-0.005757
0.083558	-0.008898
0.085197	-0.011191
0.086835	-0.004927
0.088474	-0.005922
0.090112	-0.000166
0.091750	-0.001744
0.093389	-0.004323
0.095027	-0.002928
0.096666	0.004905
0.098304	0.004831
0.099942	0.007746
0.101581	0.006896
0.103219	0.000604
0.104858	0.002941
0.108134	-0.006836
0.111411	0.004921
0.114688	0.004129
0.117965	0.001695
0.121242	0.002435
0.124518	0.001943
0.127795	0.002669
0.131072	-0.005191
0.134349	-0.002414
0.137626	0.003309
0.140902	-0.001778
0.144179	0.001345
0.147456	-0.003614
0.150733	-0.001383
0.154010	-0.002172
0.157286	0.004139
0.160563	0.000980
0.163840	-0.005148
0.167117	-0.004082
0.170394	-0.004113
0.173670	0.002519
0.176947	0.004829
0.180224	0.003334
0.183501	-0.002646
0.186778	-0.000294
0.190054	0.000907
0.193331	0.005281
0.196608	0.002302
0.199885	-0.006829
0.203162	0.002509
0.206438	0.010437
0.209715	0.007950
0.216269	0.001624
0.222822	0.006903
0.229376	0.002592
0.235930	-0.000137
0.242483	-0.001516
0.249037	-0.003600
0.255590	-0.005181
0.262144	-0.004340
0.268698	0.002655
0.275251	0.000628
0.281805	-0.003784
0.288358	-0.003218
0.294912	-0.001072
0.301466	0.002878
0.308019	-0.004563
0.314573	-0.001628
0.321126	-0.004889
0.327680	0.006408
0.334234	0.000697
0.340787	7.213827E-5
0.347341	-0.002846
0.353894	-0.002727
0.360448	-0.003090
0.367002	-0.001887
0.373555	0.003208
0.380109	-0.004422
0.386662	-0.003547
0.393216	-0.000442
0.399770	0.003880
0.406323	-0.005007
0.412877	0.004293
0.419430	-0.003608
0.432538	-0.000925
0.445645	-0.000890
0.458752	-0.001125
0.471859	-0.003790
0.484966	0.003361
0.498074	0.001369
0.511181	-0.001265
0.524288	-0.001741
0.537395	-0.006395
0.550502	0.006234
0.563610	0.008902
0.576717	0.000785
0.589824	0.000648
0.602931	0.003256
0.616038	-0.001035
0.629146	-0.002177
0.642253	-0.004908
0.655360	-0.002767
0.668467	0.006580
0.681574	-0.007088
0.694682	-0.009153
0.707789	-0.000371
0.720896	-0.006380
0.734003	-0.002339
0.747110	-0.000398
0.760218	0.004321
0.773325	0.004986
0.786432	0.002583
0.799539	-0.002378
0.812646	0.003786
0.825754	-0.002110
0.838861	-0.004554
0.865075	-0.003076
0.891290	-0.003616
0.917504	0.000558
0.943718	-0.002148
0.969933	-0.002629
0.996147	0.002870
1.022362	0.000785
1.048576	0.002276
1.074790	-0.002337
1.101005	0.002701
1.127219	-0.001609
1.153434	-0.003089
1.179648	-0.001173
1.205862	0.001542
1.232077	0.003240
1.258291	0.001814
1.284506	0.002346
1.310720	0.001035
1.336934	-0.000461
1.363149	0.002668
1.389363	0.001207
1.415578	0.000492
1.441792	0.000649
1.468006	0.001040
1.494221	0.003281
1.520435	-0.001747
1.546650	0.001368
1.572864	-0.001667
1.599078	0.002894
1.625293	-0.002310
1.651507	0.002487
1.677722	0.000461
1.730150	-0.000975
1.782579	0.002112
1.835008	0.002433
1.887437	-0.001767
1.939866	-8.836867E-5
1.992294	-0.000243
2.044723	-0.002197
2.097152	-0.003352
2.149581	-0.001679
2.202010	0.001532
2.254438	0.002656
2.306867	-0.002526
2.359296	-0.001432
2.411725	0.002753
2.464154	0.001039
2.516582	-0.000732
2.569011	0.001552
2.621440	0.002650
2.673869	-0.000818
2.726298	0.002197
2.778726	0.003445
2.831155	0.001768
2.883584	-0.000822
2.936013	0.000248
2.988442	-0.006196
3.040870	-8.016669E-5
3.093299	-0.000922
3.145728	-0.002752
3.198157	0.001130
3.250586	-0.000655
3.303015	-0.000759
3.355443	0.000827
3.460301	-0.002311
3.565158	-0.000530
3.670016	-0.000685
3.774873	-0.001436
3.879731	-0.000650
3.984589	0.002798
4.089447	0.002252
4.194304	0.000653
4.299161	-0.000131
4.404019	-0.001861
4.508877	0.001950
4.613734	0.001349
4.718592	-0.000905
4.823450	-3.833028E-5
4.928307	-0.002876
5.033165	0.001215
5.138022	0.000273
5.242880	0.000418
5.347738	5.474286E-5
5.452595	-0.001657
5.557453	8.894353E-5
5.662311	-0.000381
5.767168	-0.000734
5.872025	0.002180
5.976883	-0.001291
6.081741	0.002389
6.186598	-0.000913
6.291456	1.526532E-5
6.396314	-0.002145
6.501171	-9.932619E-5
6.606029	0.000152
6.710886	-0.000291
6.920601	-4.987122E-6
7.130317	-0.000866
7.340032	-0.001050
7.549747	-0.000416
7.759462	0.000240
7.969178	0.001408
8.178893	-0.001444
8.388608	-0.001147
8.598323	0.000549
8.808039	-0.000718
9.017754	0.000574
9.227468	0.000708
9.437184	6.630490E-5
9.646899	-0.000748
9.856614	-0.001103
10.066330	-0.001118
10.276045	-0.000710
10.485760	0.000445
10.695476	3.095867E-5
10.905190	0.002031
11.114905	0.000569
11.324621	-0.002000
11.534336	-0.002523
11.744051	-0.000111
11.953767	0.000331
12.163482	-0.000632
12.373197	0.000225
12.582912	0.000462
12.792627	-0.001823
13.002342	-0.001752
13.212058	1.755560E-5
13.421773	0.000655
13.841203	0.000106
14.260633	-0.000439
14.680064	0.000945
15.099494	0.000839
15.518925	-0.000478
15.938355	-0.000365
16.357786	0.001986
16.777216	-0.001432
17.196646	-0.002325
17.616077	0.000464
18.035507	0.000374
18.454937	-0.000262
18.874369	0.000000
19.293798	NaN
19.713228	NaN
20.132660	NaN
20.552090	NaN
20.971519	NaN
21.390951	NaN
21.810381	NaN
22.229811	NaN
22.649242	NaN
23.068672	NaN
23.488102	NaN
23.907534	NaN
24.326963	NaN
24.746393	NaN
25.165825	NaN
25.585255	NaN
26.004684	NaN
26.424116	NaN
26.843546	NaN
27.682405	NaN
28.521267	NaN
29.360128	NaN
30.198988	NaN
31.037849	NaN
31.876711	NaN
32.715572	NaN
33.554432	NaN
34.393291	NaN
35.232155	NaN
36.071014	NaN
36.909874	NaN
37.748737	NaN
38.587597	NaN
39.426456	NaN
40.265320	NaN
41.104179	NaN
41.943039	NaN
42.781902	NaN
43.620762	NaN
44.459621	NaN
45.298485	NaN
46.137344	NaN
46.976204	NaN
47.815067	NaN
48.653927	NaN
49.492786	NaN
50.331650	NaN
51.170509	NaN
52.009369	NaN
52.848232	NaN
53.687092	NaN
55.364811	NaN
57.042534	NaN
58.720257	NaN
60.397976	NaN
62.075699	NaN
63.753422	NaN
65.431145	NaN
67.108864	NaN
68.786583	NaN
70.464310	NaN
72.142029	NaN
73.819748	NaN
75.497475	NaN
77.175194	NaN
78.852913	NaN
80.530640	NaN
82.208359	NaN
83.886078	NaN
85.563805	NaN
87.241524	NaN
88.919243	NaN
90.596970	NaN
92.274689	NaN
93.952408	NaN
95.630135	NaN
97.307854	NaN
98.985573	NaN
100.663300	NaN
102.341019	NaN
104.018738	NaN
105.696465	NaN
107.374184	NaN
110.729622	NaN
114.085068	NaN
117.440514	NaN
120.795952	NaN
124.151398	NaN
127.506844	NaN
130.862289	NaN
134.217728	NaN
137.573166	NaN
140.928619	NaN
144.284058	NaN
147.639496	NaN
150.994949	NaN
154.350388	NaN
157.705826	NaN
161.061279	NaN
164.416718	NaN
167.772156	NaN
171.127609	NaN
174.483047	NaN
177.838486	NaN
181.193939	NaN
184.549377	NaN
187.904816	NaN
191.260269	NaN
194.615707	NaN
197.971146	NaN
201.326599	NaN
204.682037	NaN
208.037476	NaN
211.392929	NaN
214.748367	NaN
221.459244	NaN
228.170135	NaN
234.881027	NaN
241.591904	NaN
248.302795	NaN
255.013687	NaN
261.724579	NaN
268.435455	NaN
275.146332	NaN
281.857239	NaN
288.568115	NaN
295.278992	NaN
301.989899	NaN
308.700775	NaN
315.411652	NaN
322.122559	NaN
328.833435	NaN
335.544312	NaN
342.255219	NaN
348.966095	NaN
355.676971	NaN
362.387878	NaN
369.098755	NaN
375.809631	NaN
382.520538	NaN
389.231415	NaN
395.942291	NaN
402.653198	NaN
409.364075	NaN
416.074951	NaN
422.785858	NaN
429.496735	NaN
442.918488	NaN
456.340271	NaN
469.762054	NaN
483.183807	NaN
496.605591	NaN
510.027374	NaN
523.449158	NaN
536.870911	NaN
550.292664	NaN
563.714478	NaN
577.136230	NaN
590.557983	NaN
603.979797	NaN
617.401550	NaN
630.823303	NaN
644.245117	NaN
657.666870	NaN
671.088623	NaN
684.510437	NaN
697.932190	NaN
711.353943	NaN
724.775757	NaN
738.197510	NaN
751.619263	NaN
765.041077	NaN
778.462830	NaN
791.884583	NaN
805.306396	NaN
818.728149	NaN
832.149902	NaN
845.571716	NaN
858.993469	NaN
885.836975	NaN
912.680542	NaN
939.524109	NaN
966.367615	NaN
993.211182	NaN
1020.054749	NaN
1046.898315	NaN
1073.741821	NaN
1100.585327	NaN
1127.428955	NaN
1154.272461	NaN
1181.115967	NaN
1207.959595	NaN
1234.803101	NaN
1261.646606	NaN
1288.490234	NaN
1315.333740	NaN
1342.177246	NaN
1369.020874	NaN
1395.864380	NaN
1422.707886	NaN
1449.551514	NaN
1476.395020	NaN
1503.238525	NaN
1530.082153	NaN
1556.925659	NaN
1583.769165	NaN
1610.612793	NaN
1637.456299	NaN
1664.299805	NaN
1691.143433	NaN
1717.986938	NaN
1771.673950	NaN
1825.361084	NaN
1879.048218	NaN
1932.735229	NaN
1986.422363	NaN
2040.109497	NaN
2093.796631	NaN
2147.483643	NaN
2201.170654	NaN
2254.857910	NaN
2308.544922	NaN
2362.231934	NaN
2415.919189	NaN
2469.606201	NaN
2523.293213	NaN
2576.980469	NaN
2630.667480	NaN
2684.354492	NaN
2738.041748	NaN
2791.728760	NaN
2845.415771	NaN
2899.103027	NaN
2952.790039	NaN
3006.477051	NaN
3060.164307	NaN
3113.851318	NaN
3167.538330	NaN
3221.225586	NaN
3274.912598	NaN
3328.599609	NaN
3382.286865	NaN
3435.973877	NaN
0.000000	NaN
0.000000	NaN
0.000000	NaN
0.000000	NaN
0.000000	NaN
0.000000	NaN
0.000000	NaN
0.000000	NaN
0.000000	NaN
0.000000	NaN
0.000000	NaN
0.000000	NaN
0.000000	NaN
0.000000	NaN
0.000000	NaN
0.000000	NaN
0.000000	NaN
0.000000	NaN
0.000000	NaN
0.000000	NaN
0.000000	NaN
0.000000	NaN
0.000000	NaN
0.000000	NaN
0.000000	NaN
0.000000	NaN
0.000000	NaN
0.000000	NaN
0.000000	NaN
0.000000	NaN
0.000000	NaN
0.000000	NaN

Count Rate History (KHz)  CR CHA / CR CHB
0.000000	105.419159	106.487274
0.104858	94.995499	95.472336
0.209715	113.534927	123.109818
0.314573	123.834610	120.525360
0.419430	103.740692	104.188919
0.524288	99.143982	103.530884
0.629146	97.274780	98.552704
0.734003	123.767853	128.412247
0.838861	107.660294	111.141205
0.943718	128.221512	140.180588
1.048576	121.870041	120.229721
1.153434	94.032288	99.449158
1.258291	130.138397	131.607056
1.363149	123.929977	131.416321
1.468006	157.003403	163.621902
1.572864	87.213516	84.991455
1.677722	89.673996	91.485977
1.782579	106.573105	109.024048
1.887437	120.410919	124.740601
1.992294	116.195679	118.036270
2.097152	131.225586	135.211945
2.202010	114.850998	117.492676
2.306867	107.622147	105.810165
2.411725	100.698471	105.581284
2.516582	140.199661	147.619247
2.621440	147.962570	151.691437
2.726298	113.430023	120.134354
2.831155	115.299225	112.237930
2.936013	103.406906	106.525421
3.040870	96.054077	104.942322
3.145728	157.527924	151.338577
3.250586	99.821091	106.315613
3.355443	113.716125	108.976364
3.460301	126.104355	128.650665
3.565158	95.834732	97.160339
3.670016	105.581284	112.295151
3.774874	112.638474	111.684799
3.879731	106.744766	108.022690
3.984589	129.299164	132.837296
4.089446	136.594772	143.995285
4.194304	122.203827	124.149323
4.299162	138.111115	143.346786
4.404019	97.990036	100.326538
4.508877	114.946365	117.034912
4.613734	90.684891	88.787079
4.718592	119.495392	123.167038
4.823450	106.220245	106.287003
4.928307	98.171234	98.848343
5.033165	136.966705	139.923096
5.138022	101.785660	103.349686
5.242880	117.254257	125.751495
5.347738	143.203735	141.887665
5.452595	98.552704	99.439621
5.557453	124.025345	128.259659
5.662310	104.579926	105.981827
5.767168	111.541748	112.447739
5.872026	107.135773	111.551285
5.976883	119.199753	124.750137
6.081741	113.563538	116.586685
6.186598	123.176575	119.123459
6.291456	91.638565	90.837479
6.396314	117.216110	122.766495
6.501171	107.212067	105.209351
6.606029	152.330399	160.493851
6.710886	143.184662	144.538879
6.815744	138.530731	146.245956
6.920602	106.124878	101.423264
7.025459	125.074387	126.991272
7.130317	122.375488	125.818253
7.235174	105.600357	103.693008
7.340032	114.984512	118.551254
7.444890	110.015869	110.969543
7.549747	99.973679	102.863312
7.654605	107.793808	110.311508
7.759462	109.100342	113.353729
7.864320	103.883743	106.019974
7.969178	138.540268	136.432648
8.074035	117.063522	123.596191
8.178893	132.894516	136.299133
8.283750	130.672455	135.679245
8.388608	113.420486	122.251511
8.493466	122.728348	122.880936
8.598323	109.586716	113.134384
8.703181	131.921768	134.735107
8.808038	126.409531	130.252838
8.912896	89.778900	98.762512
9.017754	116.786957	111.331940
9.122611	99.449158	103.015900
9.227469	134.477615	134.201050
9.332326	148.868561	152.053833
9.437184	104.160309	105.819702
9.542042	116.052628	115.318298
9.646899	107.898712	108.575821
9.751757	122.547150	131.750107
9.856614	115.013123	109.424591
9.961472	100.078583	108.194351
10.066330	125.226974	131.072998
10.171187	132.217407	132.493973
10.276045	119.953156	118.722916
10.380902	124.483109	125.656128
10.485760	106.363297	106.735229
10.590618	153.360367	160.245895
10.695475	111.331940	109.901428
10.800333	134.124756	140.008926
10.905190	92.658997	96.101761
11.010048	139.455795	136.356354
11.114906	119.056702	125.551224
11.219763	133.981705	140.829086
11.324621	121.450424	123.043060
11.429478	86.479187	83.522797
11.534336	106.220245	111.637115
11.639194	96.368790	97.217560
11.744051	124.959946	124.530792
11.848909	132.074356	139.942169
11.953766	101.032257	104.036331
12.058624	155.868530	161.428452
12.163482	117.902756	120.210648
12.268339	120.973587	122.556686
12.373197	89.149475	88.510513
12.478054	124.521255	129.194260
12.582912	126.066208	129.871368
12.687770	108.356476	109.415054
12.792627	120.563507	123.376846
12.897485	114.078522	122.823715
13.002342	142.717361	148.658752
13.107200	108.642578	105.400085
13.212058	118.761063	120.830536
13.316915	118.312836	129.575729
13.421773	118.398666	114.755630
13.526630	105.342865	108.661652
13.631488	91.505051	91.676712
13.736346	91.533661	93.078613
13.841203	90.093613	88.720322
13.946061	100.965500	106.973648
14.050918	111.989975	110.855103
14.155776	90.894699	91.409683
14.260634	131.530762	135.288239
14.365491	115.947723	118.894577
14.470349	123.672485	125.656128
14.575206	112.485886	113.906860
14.680064	115.432739	114.412308
14.784922	107.126236	118.160248
14.889779	129.890442	124.835968
14.994637	86.507797	97.475052
15.099494	113.162994	103.292465
15.204352	119.476318	122.451782
15.309210	102.005005	104.064941
15.414067	130.605698	130.147934
15.518925	98.304749	106.191635
15.623782	107.984543	108.232498
15.728640	94.499588	94.432831
15.833498	147.027969	151.767731
15.938355	87.060928	87.203979
16.043213	103.778839	105.991364
16.148070	146.217346	150.632858
16.252928	109.443665	113.134384
16.357786	115.165710	116.672516
16.462643	88.615417	88.510513
16.567501	110.540390	114.336014
16.672358	116.376877	113.887787
16.777216	107.555389	111.999512
16.882074	130.462646	131.130219
16.986931	125.856400	132.064819
17.091789	123.720169	118.980408
17.196646	109.567642	114.679337
17.301504	105.237961	107.240677
17.406362	133.390427	140.609741
17.511219	108.680725	110.635757
17.616077	146.131516	149.192810
17.720934	125.932693	129.585266
17.825792	105.714798	108.938217
17.930650	124.130249	138.654709
18.035507	116.996765	113.239288
18.140365	112.123489	115.242004
18.245222	92.267990	93.135834
18.350080	105.218887	104.494095
18.454938	104.808807	107.593536
18.559795	113.124847	116.462708
18.664653	95.767975	98.237991
18.769510	125.417709	132.427216
18.874368	111.989975	112.352371
18.979226	102.338791	103.788376
19.084083	131.149292	134.029388
19.188941	115.089417	117.607117
19.293798	120.573044	121.936798
19.398656	131.034851	130.701065
19.503514	91.152191	91.571808
19.608371	98.609924	101.118088
19.713229	103.998184	108.890533
