1/9/2026	1:51 PM
Pseudo Cross Correlation
Scattering angle:	80.0
Duration (s):	20
Wavelength (nm):	632.8
Refractive index:	1.330
Viscosity (mPas):	0.711
Temperature (K):	308.7
Laser intensity (mW):	2.641020
Average Count rate  A (kHz):	327.5
Average Count rate  B (kHz):	346.0
Intercept:	0.9609
Cumulant 1st	368.09
Cumulant 2nd	374.65	56.75
Cumulant 3rd	385.40	135.25

Lag time (s)         g2-1
1.250000E-8	0.950645
2.500000E-8	0.966248
3.750000E-8	0.951286
5.000000E-8	0.963612
6.250000E-8	0.963790
7.500000E-8	0.953887
8.750000E-8	0.969704
1.000000E-7	0.954065
1.125000E-7	0.954029
1.250000E-7	0.947688
1.375000E-7	0.947047
1.500000E-7	0.969383
1.625000E-7	0.947154
1.750000E-7	0.950538
1.875000E-7	0.956558
2.000000E-7	0.959622
2.125000E-7	0.951428
2.250000E-7	0.958268
2.375000E-7	0.961190
2.500000E-7	0.960548
2.625000E-7	0.954243
2.750000E-7	0.971627
2.875000E-7	0.954278
3.000000E-7	0.945194
3.125000E-7	0.952283
3.250000E-7	0.965892
3.375000E-7	0.948472
3.500000E-7	0.966248
3.625000E-7	0.958945
3.750000E-7	0.958945
3.875000E-7	0.954421
4.000000E-7	0.967566
4.125000E-7	0.964966
4.250000E-7	0.971806
4.375000E-7	0.948899
4.500000E-7	0.952818
4.625000E-7	0.954741
4.750000E-7	0.972304
4.875000E-7	0.971734
5.000000E-7	0.955810
5.125000E-7	0.958446
5.250000E-7	0.953958
5.375000E-7	0.967495
5.500000E-7	0.956843
5.625000E-7	0.956273
5.750000E-7	0.964716
5.875000E-7	0.962329
6.000000E-7	0.946690
6.125000E-7	0.965821
6.250000E-7	0.964966
6.375000E-7	0.967637
6.500000E-7	0.961760
6.625000E-7	0.952782
6.750000E-7	0.963861
6.875000E-7	0.966213
7.000000E-7	0.978218
7.125000E-7	0.952747
7.250000E-7	0.971414
7.375000E-7	0.972625
7.500000E-7	0.958838
7.625000E-7	0.951785
7.750000E-7	0.963291
7.875000E-7	0.952996
8.000000E-7	0.952996
8.250000E-7	0.967014
8.500000E-7	0.959747
8.750000E-7	0.963915
9.000000E-7	0.953797
9.250000E-7	0.951500
9.500000E-7	0.978770
9.750000E-7	0.963256
1.000000E-6	0.955027
1.025000E-6	0.948276
1.050000E-6	0.960530
1.075000E-6	0.950431
1.100000E-6	0.952925
1.125000E-6	0.957146
1.150000E-6	0.965090
1.175000E-6	0.945711
1.200000E-6	0.971414
1.225000E-6	0.953887
1.250000E-6	0.968314
1.275000E-6	0.963113
1.300000E-6	0.961866
1.325000E-6	0.945604
1.350000E-6	0.952034
1.375000E-6	0.947456
1.400000E-6	0.960548
1.425000E-6	0.962988
1.450000E-6	0.960192
1.475000E-6	0.959871
1.500000E-6	0.962810
1.525000E-6	0.968457
1.550000E-6	0.960050
1.575000E-6	0.963184
1.600000E-6	0.950716
1.650000E-6	0.961314
1.700000E-6	0.961902
1.750000E-6	0.957128
1.800000E-6	0.948356
1.850000E-6	0.961608
1.900000E-6	0.962089
1.950000E-6	0.960735
2.000000E-6	0.961439
2.050000E-6	0.959337
2.100000E-6	0.961127
2.150000E-6	0.957102
2.200000E-6	0.960245
2.250000E-6	0.945889
2.300000E-6	0.959221
2.350000E-6	0.953121
2.400000E-6	0.953014
2.450000E-6	0.959346
2.500000E-6	0.955338
2.550000E-6	0.951829
2.600000E-6	0.955748
2.650000E-6	0.957422
2.700000E-6	0.953699
2.750000E-6	0.964387
2.800000E-6	0.958749
2.850000E-6	0.962864
2.900000E-6	0.951660
2.950000E-6	0.949122
3.000000E-6	0.956736
3.050000E-6	0.968145
3.100000E-6	0.968501
3.150000E-6	0.955659
3.200000E-6	0.965767
3.300000E-6	0.958366
3.400000E-6	0.961630
3.500000E-6	0.960388
3.600000E-6	0.959702
3.700000E-6	0.962859
3.800000E-6	0.963162
3.900000E-6	0.959382
4.000000E-6	0.957565
4.100000E-6	0.953753
4.200000E-6	0.957284
4.300000E-6	0.960464
4.400000E-6	0.958219
4.500000E-6	0.959359
4.600000E-6	0.957093
4.700000E-6	0.955663
4.800000E-6	0.954523
4.900000E-6	0.958438
5.000000E-6	0.957667
5.100000E-6	0.958393
5.200000E-6	0.954376
5.300000E-6	0.952675
5.400000E-6	0.958446
5.500000E-6	0.955490
5.600000E-6	0.956799
5.700000E-6	0.957485
5.800000E-6	0.956505
5.900000E-6	0.953775
6.000000E-6	0.955574
6.100000E-6	0.960646
6.200000E-6	0.959159
6.300000E-6	0.957743
6.400000E-6	0.955988
6.600000E-6	0.950313
6.800000E-6	0.956316
7.000000E-6	0.955343
7.200000E-6	0.955984
7.400000E-6	0.956997
7.600000E-6	0.958901
7.800000E-6	0.953882
8.000000E-6	0.956699
8.200000E-6	0.956743
8.400000E-6	0.952315
8.600000E-6	0.954697
8.800000E-6	0.955441
9.000000E-6	0.952350
9.200000E-6	0.958035
9.400000E-6	0.952286
9.600000E-6	0.951996
9.800000E-6	0.951693
1.000000E-5	0.952936
1.020000E-5	0.950061
1.040000E-5	0.952677
1.060000E-5	0.955977
1.080000E-5	0.956770
1.100000E-5	0.952299
1.120000E-5	0.955770
1.140000E-5	0.959134
1.160000E-5	0.951108
1.180000E-5	0.953548
1.200000E-5	0.956590
1.220000E-5	0.957171
1.240000E-5	0.953907
1.260000E-5	0.955490
1.280000E-5	0.954893
1.320000E-5	0.951031
1.360000E-5	0.953107
1.400000E-5	0.953134
1.440000E-5	0.955166
1.480000E-5	0.952750
1.520000E-5	0.954089
1.560000E-5	0.952724
1.600000E-5	0.952348
1.640000E-5	0.952056
1.680000E-5	0.949157
1.720000E-5	0.950804
1.760000E-5	0.951542
1.800000E-5	0.953052
1.840000E-5	0.951229
1.880000E-5	0.952094
1.920000E-5	0.953068
1.960000E-5	0.952784
2.000000E-5	0.951839
2.040000E-5	0.949716
2.080000E-5	0.949697
2.120000E-5	0.948884
2.160000E-5	0.949052
2.200000E-5	0.948414
2.240000E-5	0.949234
2.280000E-5	0.950791
2.320000E-5	0.947415
2.360000E-5	0.950370
2.400000E-5	0.948799
2.440000E-5	0.947541
2.480000E-5	0.950157
2.520000E-5	0.946733
2.560000E-5	0.948909
2.640000E-5	0.949606
2.720000E-5	0.948273
2.800000E-5	0.946532
2.880000E-5	0.945530
2.960000E-5	0.945604
3.040000E-5	0.945948
3.120000E-5	0.945711
3.200000E-5	0.944716
3.280000E-5	0.944770
3.360000E-5	0.945587
3.440000E-5	0.945466
3.520000E-5	0.946572
3.600000E-5	0.945322
3.680000E-5	0.942055
3.760000E-5	0.945501
3.840000E-5	0.940755
3.920000E-5	0.943534
4.000000E-5	0.942203
4.080000E-5	0.943100
4.160000E-5	0.940822
4.240000E-5	0.940104
4.320000E-5	0.940930
4.400000E-5	0.940654
4.480000E-5	0.939641
4.560000E-5	0.939278
4.640000E-5	0.939238
4.720000E-5	0.938671
4.800000E-5	0.938701
4.880000E-5	0.939941
4.960000E-5	0.938936
5.040000E-5	0.939179
5.120000E-5	0.938997
5.280000E-5	0.936126
5.440000E-5	0.935656
5.600000E-5	0.936629
5.760000E-5	0.935145
5.920000E-5	0.933404
6.080000E-5	0.933060
6.240000E-5	0.931295
6.400000E-5	0.933056
6.560000E-5	0.931873
6.720000E-5	0.931132
6.880000E-5	0.930273
7.040000E-5	0.929319
7.200000E-5	0.928145
7.360000E-5	0.927457
7.520000E-5	0.926411
7.680000E-5	0.925732
7.840000E-5	0.925896
8.000000E-5	0.924125
8.160000E-5	0.924001
8.320000E-5	0.923877
8.480000E-5	0.923272
8.640000E-5	0.921229
8.800000E-5	0.921055
8.960000E-5	0.922508
9.120000E-5	0.919839
9.280000E-5	0.920349
9.440000E-5	0.918930
9.600000E-5	0.919480
9.760000E-5	0.918175
9.920000E-5	0.915978
0.000101	0.916176
0.000102	0.915684
0.000106	0.914775
0.000109	0.913014
0.000112	0.911279
0.000115	0.910277
0.000118	0.908884
0.000122	0.906733
0.000125	0.906413
0.000128	0.904618
0.000131	0.903320
0.000134	0.901681
0.000138	0.900240
0.000141	0.899071
0.000144	0.898041
0.000147	0.896794
0.000150	0.895213
0.000154	0.893382
0.000157	0.892287
0.000160	0.890507
0.000163	0.889724
0.000166	0.887771
0.000170	0.886543
0.000173	0.886002
0.000176	0.883916
0.000179	0.883079
0.000182	0.881717
0.000186	0.879341
0.000189	0.878819
0.000192	0.877040
0.000195	0.875813
0.000198	0.875283
0.000202	0.873123
0.000205	0.872106
0.000211	0.869268
0.000218	0.866974
0.000224	0.864066
0.000230	0.862300
0.000237	0.859312
0.000243	0.856490
0.000250	0.853254
0.000256	0.851051
0.000262	0.848391
0.000269	0.845420
0.000275	0.843652
0.000282	0.840573
0.000288	0.838007
0.000294	0.834931
0.000301	0.832668
0.000307	0.830205
0.000314	0.827430
0.000320	0.825455
0.000326	0.822613
0.000333	0.820308
0.000339	0.817533
0.000346	0.814565
0.000352	0.812525
0.000358	0.810354
0.000365	0.807543
0.000371	0.805072
0.000378	0.803166
0.000384	0.799781
0.000390	0.796987
0.000397	0.794806
0.000403	0.792551
0.000410	0.789584
0.000422	0.784893
0.000435	0.780518
0.000448	0.775334
0.000461	0.770348
0.000474	0.766110
0.000486	0.760698
0.000499	0.756275
0.000512	0.751351
0.000525	0.746417
0.000538	0.741607
0.000550	0.736649
0.000563	0.732226
0.000576	0.727569
0.000589	0.723098
0.000602	0.718804
0.000614	0.714147
0.000627	0.709522
0.000640	0.705333
0.000653	0.700754
0.000666	0.696071
0.000678	0.691822
0.000691	0.687743
0.000704	0.682459
0.000717	0.678147
0.000730	0.674066
0.000742	0.669670
0.000755	0.665760
0.000768	0.661322
0.000781	0.657073
0.000794	0.652923
0.000806	0.648561
0.000819	0.644670
0.000845	0.636281
0.000870	0.628521
0.000896	0.620193
0.000922	0.612273
0.000947	0.604728
0.000973	0.596469
0.000998	0.588941
0.001024	0.581577
0.001050	0.573993
0.001075	0.567180
0.001101	0.560340
0.001126	0.553072
0.001152	0.545881
0.001178	0.538674
0.001203	0.532099
0.001229	0.525129
0.001254	0.518546
0.001280	0.512207
0.001306	0.505599
0.001331	0.498704
0.001357	0.492581
0.001382	0.486604
0.001408	0.480198
0.001434	0.474294
0.001459	0.467615
0.001485	0.461876
0.001510	0.456006
0.001536	0.450503
0.001562	0.444498
0.001587	0.438593
0.001613	0.433278
0.001638	0.427644
0.001690	0.416457
0.001741	0.405903
0.001792	0.395638
0.001843	0.385843
0.001894	0.376130
0.001946	0.366757
0.001997	0.357340
0.002048	0.348180
0.002099	0.339161
0.002150	0.330209
0.002202	0.321629
0.002253	0.313229
0.002304	0.305027
0.002355	0.296798
0.002406	0.289410
0.002458	0.282052
0.002509	0.274245
0.002560	0.267443
0.002611	0.260278
0.002662	0.253648
0.002714	0.247303
0.002765	0.241275
0.002816	0.235272
0.002867	0.229215
0.002918	0.223263
0.002970	0.217776
0.003021	0.212479
0.003072	0.207182
0.003123	0.201900
0.003174	0.197014
0.003226	0.192251
0.003277	0.187716
0.003379	0.178427
0.003482	0.169515
0.003584	0.161421
0.003686	0.153613
0.003789	0.145743
0.003891	0.138378
0.003994	0.131573
0.004096	0.124581
0.004198	0.118333
0.004301	0.112289
0.004403	0.106383
0.004506	0.100569
0.004608	0.094951
0.004710	0.089757
0.004813	0.084617
0.004915	0.080071
0.005018	0.075555
0.005120	0.071575
0.005222	0.068142
0.005325	0.064947
0.005427	0.062398
0.005530	0.059390
0.005632	0.056934
0.005734	0.054116
0.005837	0.051878
0.005939	0.049665
0.006042	0.047595
0.006144	0.045535
0.006246	0.043872
0.006349	0.042556
0.006451	0.041002
0.006554	0.039372
0.006758	0.036904
0.006963	0.034910
0.007168	0.033315
0.007373	0.032331
0.007578	0.031111
0.007782	0.029824
0.007987	0.028133
0.008192	0.026484
0.008397	0.024709
0.008602	0.023250
0.008806	0.022001
0.009011	0.021484
0.009216	0.020996
0.009421	0.020294
0.009626	0.020500
0.009830	0.020634
0.010035	0.020429
0.010240	0.020301
0.010445	0.020360
0.010650	0.019745
0.010854	0.018621
0.011059	0.017619
0.011264	0.016277
0.011469	0.014987
0.011674	0.013978
0.011878	0.013951
0.012083	0.013837
0.012288	0.013410
0.012493	0.013060
0.012698	0.013061
0.012902	0.014158
0.013107	0.016044
0.013517	0.018815
0.013926	0.019901
0.014336	0.021066
0.014746	0.021969
0.015155	0.022648
0.015565	0.021879
0.015974	0.020251
0.016384	0.018505
0.016794	0.016281
0.017203	0.013604
0.017613	0.010443
0.018022	0.007840
0.018432	0.005291
0.018842	0.002940
0.019251	0.001533
0.019661	0.000323
0.020070	-0.000265
0.020480	-2.413850E-6
0.020890	-0.000146
0.021299	0.000681
0.021709	0.001390
0.022118	0.000550
0.022528	0.001257
0.022938	0.002618
0.023347	0.004897
0.023757	0.005845
0.024166	0.006356
0.024576	0.006401
0.024986	0.005671
0.025395	0.003542
0.025805	0.000703
0.026214	-0.001120
0.027034	-0.002440
0.027853	-0.002453
0.028672	-0.004259
0.029491	-0.004893
0.030310	-0.003141
0.031130	-0.001476
0.031949	-0.004985
0.032768	-0.007705
0.033587	-0.009146
0.034406	-0.009603
0.035226	-0.012397
0.036045	-0.014917
0.036864	-0.013391
0.037683	-0.012409
0.038502	-0.013733
0.039322	-0.011817
0.040141	-0.009492
0.040960	-0.005647
0.041779	-0.003852
0.042598	-0.004229
0.043418	-0.003296
0.044237	-0.003778
0.045056	-0.001910
0.045875	-0.002175
0.046694	-0.004033
0.047514	-0.004763
0.048333	-0.003018
0.049152	0.002094
0.049971	0.007272
0.050790	0.007853
0.051610	0.008112
0.052429	0.005975
0.054067	0.004402
0.055706	0.001260
0.057344	-0.003428
0.058982	0.004065
0.060621	0.014814
0.062259	0.015931
0.063898	0.016917
0.065536	0.017596
0.067174	0.013232
0.068813	0.013036
0.070451	0.014469
0.072090	0.010805
0.073728	0.013888
0.075366	0.017286
0.077005	0.010651
0.078643	0.007577
0.080282	0.002503
0.081920	-0.007436
0.083558	-0.004791
0.085197	-0.000260
0.086835	0.004471
0.088474	0.011412
0.090112	0.013923
0.091750	0.007347
0.093389	-6.331928E-5
0.095027	0.001869
0.096666	0.001833
0.098304	0.002976
0.099942	0.008575
0.101581	0.006856
0.103219	0.014554
0.104858	0.022756
0.108134	0.007496
0.111411	-0.007493
0.114688	-0.002106
0.117965	-0.012925
0.121242	0.000127
0.124518	0.005444
0.127795	0.000380
0.131072	0.005159
0.134349	0.010209
0.137626	0.004735
0.140902	0.000432
0.144179	0.001763
0.147456	-0.007690
0.150733	-0.015584
0.154010	-0.011770
0.157286	-0.004920
0.160563	-0.005345
0.163840	0.007136
0.167117	0.016669
0.170394	0.007746
0.173670	0.003210
0.176947	0.004595
0.180224	0.007269
0.183501	0.006802
0.186778	-0.000604
0.190054	-0.002190
0.193331	0.004932
0.196608	0.005631
0.199885	-0.002552
0.203162	0.007320
0.206438	0.002066
0.209715	0.000883
0.216269	-0.003181
0.222822	0.002929
0.229376	0.005868
0.235930	0.004185
0.242483	0.007310
0.249037	0.002486
0.255590	-0.006103
0.262144	-0.002996
0.268698	0.006617
0.275251	-0.001903
0.281805	0.005879
0.288358	-0.006255
0.294912	0.004223
0.301466	0.006671
0.308019	0.001117
0.314573	-0.002027
0.321126	-0.005318
0.327680	0.008908
0.334234	-0.001471
0.340787	0.012192
0.347341	-0.001058
0.353894	-0.018905
0.360448	-0.000804
0.367002	0.004550
0.373555	0.007450
0.380109	0.019198
0.386662	8.134890E-5
0.393216	-0.002175
0.399770	-0.008673
0.406323	0.005315
0.412877	0.005550
0.419430	0.008783
0.432538	0.006842
0.445645	-0.001788
0.458752	-0.002573
0.471859	0.007491
0.484966	-0.000310
0.498074	0.004308
0.511181	-0.000185
0.524288	-0.002016
0.537395	0.000760
0.550502	0.003609
0.563610	0.004677
0.576717	0.007807
0.589824	0.005041
0.602931	-0.006414
0.616038	0.013694
0.629146	0.013888
0.642253	-0.002428
0.655360	-0.008155
0.668467	-0.007654
0.681574	-0.005675
0.694682	-0.009689
0.707789	-0.004183
0.720896	-0.002110
0.734003	0.005056
0.747110	0.013053
0.760218	0.000462
0.773325	0.011957
0.786432	0.012595
0.799539	0.002030
0.812646	-0.009140
0.825754	-0.001807
0.838861	0.007553
0.865075	-0.005143
0.891290	-0.003169
0.917504	0.008116
0.943718	0.000392
0.969933	0.000119
0.996147	0.008351
1.022362	0.007879
1.048576	0.004296
1.074790	0.002462
1.101005	-0.001162
1.127219	0.004039
1.153434	-0.001634
1.179648	-0.007738
1.205862	0.005429
1.232077	-0.001471
1.258291	0.002712
1.284506	0.006597
1.310720	0.001063
1.336934	0.003087
1.363149	0.008475
1.389363	0.003490
1.415578	0.006108
1.441792	-0.004223
1.468006	-0.004793
1.494221	0.007830
1.520435	0.006611
1.546650	0.006497
1.572864	-0.005247
1.599078	-0.004368
1.625293	-0.005349
1.651507	-0.010067
1.677722	-0.003579
1.730150	0.004985
1.782579	0.004866
1.835008	0.007000
1.887437	0.006921
1.939866	0.001295
1.992294	0.002974
2.044723	0.005104
2.097152	6.404777E-5
2.149581	0.003129
2.202010	-0.000912
2.254438	-0.004869
2.306867	-0.002630
2.359296	0.002998
2.411725	-0.002030
2.464154	0.001893
2.516582	0.001333
2.569011	0.003134
2.621440	-0.003644
2.673869	-5.443528E-5
2.726298	-0.006875
2.778726	0.002341
2.831155	0.002248
2.883584	0.000512
2.936013	0.005045
2.988442	-0.006739
3.040870	-0.000243
3.093299	0.009595
3.145728	-0.001585
3.198157	-0.002589
3.250586	0.002037
3.303015	-0.004628
3.355443	0.004926
3.460301	0.002182
3.565158	-0.002349
3.670016	-0.002568
3.774873	0.001019
3.879731	0.002867
3.984589	0.004416
4.089447	-0.001321
4.194304	-0.003945
4.299161	0.000934
4.404019	0.003142
4.508877	-0.004025
4.613734	-0.000801
4.718592	-0.005268
4.823450	0.000966
4.928307	0.005903
5.033165	-0.003399
5.138022	-0.002285
5.242880	0.003445
5.347738	0.000183
5.452595	-0.003721
5.557453	-0.005032
5.662311	2.512202E-5
5.767168	-0.000839
5.872025	0.003394
5.976883	0.003189
6.081741	-0.006181
6.186598	-0.001234
6.291456	-0.000196
6.396314	-0.001341
6.501171	-0.004314
6.606029	-0.001757
6.710886	-0.003849
6.920601	-0.004124
7.130317	-0.001249
7.340032	-0.003320
7.549747	-0.004813
7.759462	0.000494
7.969178	-0.006320
8.178893	-0.006821
8.388608	-0.001544
8.598323	-0.004485
8.808039	-0.001382
9.017754	-0.002763
9.227468	0.002270
9.437184	-0.005390
9.646899	0.003383
9.856614	-0.003179
10.066330	-0.004439
10.276045	0.002512
10.485760	-0.000291
10.695476	0.000212
10.905190	0.000955
11.114905	-0.000117
11.324621	-0.000246
11.534336	0.001856
11.744051	-0.002906
11.953767	-0.005937
12.163482	0.001253
12.373197	0.000809
12.582912	0.002336
12.792627	-0.000173
13.002342	-0.003183
13.212058	-0.002227
13.421773	0.001458
13.841203	0.000891
14.260633	-0.000555
14.680064	0.002930
15.099494	-0.002319
15.518925	-0.001202
15.938355	0.002830
16.357786	0.001877
16.777216	-0.002883
17.196646	-0.002513
17.616077	-0.002747
18.035507	0.001826
18.454937	0.000834
18.874369	0.000000
19.293798	NaN
19.713228	NaN
20.132660	NaN
20.552090	NaN
20.971519	NaN
21.390951	NaN
21.810381	NaN
22.229811	NaN
22.649242	NaN
23.068672	NaN
23.488102	NaN
23.907534	NaN
24.326963	NaN
24.746393	NaN
25.165825	NaN
25.585255	NaN
26.004684	NaN
26.424116	NaN
26.843546	NaN
27.682405	NaN
28.521267	NaN
29.360128	NaN
30.198988	NaN
31.037849	NaN
31.876711	NaN
32.715572	NaN
33.554432	NaN
34.393291	NaN
35.232155	NaN
36.071014	NaN
36.909874	NaN
37.748737	NaN
38.587597	NaN
39.426456	NaN
40.265320	NaN
41.104179	NaN
41.943039	NaN
42.781902	NaN
43.620762	NaN
44.459621	NaN
45.298485	NaN
46.137344	NaN
46.976204	NaN
47.815067	NaN
48.653927	NaN
49.492786	NaN
50.331650	NaN
51.170509	NaN
52.009369	NaN
52.848232	NaN
53.687092	NaN
55.364811	NaN
57.042534	NaN
58.720257	NaN
60.397976	NaN
62.075699	NaN
63.753422	NaN
65.431145	NaN
67.108864	NaN
68.786583	NaN
70.464310	NaN
72.142029	NaN
73.819748	NaN
75.497475	NaN
77.175194	NaN
78.852913	NaN
80.530640	NaN
82.208359	NaN
83.886078	NaN
85.563805	NaN
87.241524	NaN
88.919243	NaN
90.596970	NaN
92.274689	NaN
93.952408	NaN
95.630135	NaN
97.307854	NaN
98.985573	NaN
100.663300	NaN
102.341019	NaN
104.018738	NaN
105.696465	NaN
107.374184	NaN
110.729622	NaN
114.085068	NaN
117.440514	NaN
120.795952	NaN
124.151398	NaN
127.506844	NaN
130.862289	NaN
134.217728	NaN
137.573166	NaN
140.928619	NaN
144.284058	NaN
147.639496	NaN
150.994949	NaN
154.350388	NaN
157.705826	NaN
161.061279	NaN
164.416718	NaN
167.772156	NaN
171.127609	NaN
174.483047	NaN
177.838486	NaN
181.193939	NaN
184.549377	NaN
187.904816	NaN
191.260269	NaN
194.615707	NaN
197.971146	NaN
201.326599	NaN
204.682037	NaN
208.037476	NaN
211.392929	NaN
214.748367	NaN
221.459244	NaN
228.170135	NaN
234.881027	NaN
241.591904	NaN
248.302795	NaN
255.013687	NaN
261.724579	NaN
268.435455	NaN
275.146332	NaN
281.857239	NaN
288.568115	NaN
295.278992	NaN
301.989899	NaN
308.700775	NaN
315.411652	NaN
322.122559	NaN
328.833435	NaN
335.544312	NaN
342.255219	NaN
348.966095	NaN
355.676971	NaN
362.387878	NaN
369.098755	NaN
375.809631	NaN
382.520538	NaN
389.231415	NaN
395.942291	NaN
402.653198	NaN
409.364075	NaN
416.074951	NaN
422.785858	NaN
429.496735	NaN
442.918488	NaN
456.340271	NaN
469.762054	NaN
483.183807	NaN
496.605591	NaN
510.027374	NaN
523.449158	NaN
536.870911	NaN
550.292664	NaN
563.714478	NaN
577.136230	NaN
590.557983	NaN
603.979797	NaN
617.401550	NaN
630.823303	NaN
644.245117	NaN
657.666870	NaN
671.088623	NaN
684.510437	NaN
697.932190	NaN
711.353943	NaN
724.775757	NaN
738.197510	NaN
751.619263	NaN
765.041077	NaN
778.462830	NaN
791.884583	NaN
805.306396	NaN
818.728149	NaN
832.149902	NaN
845.571716	NaN
858.993469	NaN
885.836975	NaN
912.680542	NaN
939.524109	NaN
966.367615	NaN
993.211182	NaN
1020.054749	NaN
1046.898315	NaN
1073.741821	NaN
1100.585327	NaN
1127.428955	NaN
1154.272461	NaN
1181.115967	NaN
1207.959595	NaN
1234.803101	NaN
1261.646606	NaN
1288.490234	NaN
1315.333740	NaN
1342.177246	NaN
1369.020874	NaN
1395.864380	NaN
1422.707886	NaN
1449.551514	NaN
1476.395020	NaN
1503.238525	NaN
1530.082153	NaN
1556.925659	NaN
1583.769165	NaN
1610.612793	NaN
1637.456299	NaN
1664.299805	NaN
1691.143433	NaN
1717.986938	NaN
1771.673950	NaN
1825.361084	NaN
1879.048218	NaN
1932.735229	NaN
1986.422363	NaN
2040.109497	NaN
2093.796631	NaN
2147.483643	NaN
2201.170654	NaN
2254.857910	NaN
2308.544922	NaN
2362.231934	NaN
2415.919189	NaN
2469.606201	NaN
2523.293213	NaN
2576.980469	NaN
2630.667480	NaN
2684.354492	NaN
2738.041748	NaN
2791.728760	NaN
2845.415771	NaN
2899.103027	NaN
2952.790039	NaN
3006.477051	NaN
3060.164307	NaN
3113.851318	NaN
3167.538330	NaN
3221.225586	NaN
3274.912598	NaN
3328.599609	NaN
3382.286865	NaN
3435.973877	NaN
0.000000	NaN
0.000000	NaN
0.000000	NaN
0.000000	NaN
0.000000	NaN
0.000000	NaN
0.000000	NaN
0.000000	NaN
0.000000	NaN
0.000000	NaN
0.000000	NaN
0.000000	NaN
0.000000	NaN
0.000000	NaN
0.000000	NaN
0.000000	NaN
0.000000	NaN
0.000000	NaN
0.000000	NaN
0.000000	NaN
0.000000	NaN
0.000000	NaN
0.000000	NaN
0.000000	NaN
0.000000	NaN
0.000000	NaN
0.000000	NaN
0.000000	NaN
0.000000	NaN
0.000000	NaN
0.000000	NaN
0.000000	NaN

Count Rate History (KHz)  CR CHA / CR CHB
0.000000	335.130692	344.810486
0.104858	277.032852	301.408768
0.209715	443.410873	462.951660
0.314573	267.362595	281.553268
0.419430	263.032913	294.704437
0.524288	328.388214	333.452225
0.629146	372.734070	389.709473
0.734003	415.821075	443.410873
0.838861	397.586823	437.211990
0.943718	358.314514	369.138718
1.048576	474.147797	506.486893
1.153434	313.587189	328.245163
1.258291	244.388580	256.700516
1.363149	239.715576	258.722305
1.468006	346.078873	365.953445
1.572864	272.569656	297.641754
1.677722	283.317566	285.758972
1.782579	246.391296	255.928040
1.887437	258.798599	272.502899
1.992294	320.997238	353.345871
2.097152	449.533463	465.717316
2.202010	291.929245	308.494568
2.306867	291.681290	302.095413
2.411725	275.211334	302.572250
2.516582	329.818726	351.772308
2.621440	282.030106	330.696106
2.726298	391.254425	376.291275
2.831155	348.644257	368.356705
2.936013	265.197754	288.391113
3.040870	405.120850	409.393311
3.145728	270.881653	287.418365
3.250586	344.572067	364.885330
3.355443	321.388245	337.457657
3.460301	376.529694	395.107269
3.565158	333.557129	365.018845
3.670016	375.843048	391.979218
3.774874	308.074951	317.335129
3.879731	289.230347	305.194855
3.984589	337.715149	360.774994
4.089446	407.962799	430.221558
4.194304	415.544510	442.180634
4.299162	361.280441	387.945175
4.404019	305.709839	313.863754
4.508877	356.426239	409.879684
4.613734	392.360687	391.178131
4.718592	287.971497	301.561356
4.823450	342.588425	360.174179
4.928307	308.265686	324.125290
5.033165	329.732895	359.134674
5.138022	432.558060	455.284119
5.242880	271.072388	285.406113
5.347738	293.626785	306.892395
5.452595	251.436234	270.605087
5.557453	298.528671	312.881470
5.662310	297.946930	306.634903
5.767168	323.162079	344.829559
5.872026	351.305008	368.413925
5.976883	372.056961	394.239426
6.081741	317.344666	330.038071
6.186598	291.395187	319.347382
6.291456	258.932114	282.878876
6.396314	363.111496	384.378433
6.501171	386.600494	391.902924
6.606029	253.047943	263.319016
6.710886	270.309448	286.912918
6.815744	362.043381	387.630463
6.920602	423.870087	445.127487
7.025459	429.077148	448.455811
7.130317	301.103592	343.284607
7.235174	283.737183	283.546448
7.340032	234.260559	245.094299
7.444890	362.253189	387.430191
7.549747	201.530457	205.869675
7.654605	309.667587	342.645645
7.759462	418.262482	441.436768
7.864320	285.673141	308.589935
7.969178	374.765396	380.783081
8.074035	401.010513	425.415039
8.178893	371.942520	397.033691
8.283750	296.525955	307.741165
8.388608	375.537872	409.669876
8.493466	338.363647	361.747742
8.598323	418.777466	435.276031
8.703181	266.122818	297.117233
8.808038	325.193405	332.918167
8.912896	293.684006	313.825607
9.017754	301.628113	322.408676
9.122611	229.377747	260.562897
9.227469	290.346146	288.305283
9.332326	339.279175	366.477966
9.437184	276.889801	278.596878
9.542042	210.561752	221.042633
9.646899	250.577927	271.778107
9.751757	296.001434	299.634933
9.856614	260.028839	279.359818
9.961472	621.089935	659.284592
10.066330	256.118774	275.983810
10.171187	229.759216	236.349106
10.276045	333.576202	342.636108
10.380902	299.949646	323.390961
10.485760	278.606415	298.185349
10.590618	261.602402	275.430679
10.695475	223.360062	233.087540
10.800333	278.043747	305.376053
10.905190	308.876038	311.727524
11.010048	272.760391	290.651321
11.114906	273.427963	294.752121
11.219763	274.124146	286.026001
11.324621	305.309296	320.539474
11.429478	256.528854	274.448395
11.534336	273.418427	289.735794
11.639194	273.380280	281.982422
11.744051	312.643051	328.426361
11.848909	309.181213	325.374603
11.953766	301.637650	322.542191
12.058624	274.038315	301.790237
12.163482	249.156952	259.799957
12.268339	250.778198	263.061523
12.373197	393.009186	401.382446
12.478054	205.469131	230.188370
12.582912	345.821381	358.552933
12.687770	276.002884	284.938812
12.792627	235.624313	245.552063
12.897485	295.047760	343.980789
13.002342	445.041656	435.276031
13.107200	368.757248	389.175415
13.212058	304.737091	327.386856
13.316915	318.508148	344.829559
13.421773	341.615677	360.479355
13.526630	278.158188	289.402008
13.631488	360.155106	400.857925
13.736346	349.969864	352.745056
13.841203	399.188995	417.785645
13.946061	313.615799	324.764252
14.050918	261.526108	303.888321
14.155776	321.359634	318.403244
14.260634	407.724380	445.814133
14.365491	347.585678	357.046127
14.470349	458.450317	476.799011
14.575206	343.723297	360.202789
14.680064	266.962051	288.810730
14.784922	353.832245	365.190506
14.889779	404.138565	446.662903
14.994637	349.025726	347.900391
15.099494	260.610580	270.843506
15.204352	440.359116	473.661423
15.309210	285.911560	293.569565
15.414067	285.511017	309.362411
15.518925	359.287262	370.397568
15.623782	363.578796	385.265350
15.728640	346.422195	376.586914
15.833498	337.114334	365.228653
15.938355	350.704193	350.723267
16.043213	226.650238	235.452652
16.148070	296.602249	333.528519
16.252928	394.201279	395.517349
16.357786	366.954803	408.277512
16.462643	277.957916	278.530121
16.567501	379.667282	402.488708
16.672358	297.651291	324.144363
16.777216	435.562134	458.393097
16.882074	265.378952	267.658234
16.986931	502.624512	542.993546
17.091789	280.313492	283.002853
17.196646	300.722122	326.404572
17.301504	407.361984	436.372757
17.406362	383.892059	392.494202
17.511219	263.433456	279.722214
17.616077	400.161743	427.112579
17.720934	330.200195	350.255966
17.825792	298.290253	296.649933
17.930650	247.507095	258.588791
18.035507	243.558884	268.917084
18.140365	320.110321	331.926346
18.245222	440.139771	461.797714
18.350080	390.663147	417.623520
18.454938	295.066833	318.832397
18.559795	417.432785	442.056656
18.664653	404.129028	398.368835
18.769510	270.423889	291.271210
18.874368	260.572433	281.276703
18.979226	378.866196	421.762466
19.084083	468.158722	485.248566
19.188941	354.938507	374.259949
19.293798	364.036560	380.535126
19.398656	362.968445	390.357971
19.503514	487.346649	524.892807
19.608371	519.266129	537.481308
19.713229	260.410309	269.899368
