1/9/2026	1:49 PM
Pseudo Cross Correlation
Scattering angle:	40.0
Duration (s):	20
Wavelength (nm):	632.8
Refractive index:	1.330
Viscosity (mPas):	0.711
Temperature (K):	308.7
Laser intensity (mW):	2.641388
Average Count rate  A (kHz):	3438.5
Average Count rate  B (kHz):	3517.6
Intercept:	0.6964
Cumulant 1st	364.72
Cumulant 2nd	368.98	44.99
Cumulant 3rd	376.51	109.99

Lag time (s)         g2-1
1.250000E-8	0.697125
2.500000E-8	0.696737
3.750000E-8	0.696958
5.000000E-8	0.694631
6.250000E-8	0.695323
7.500000E-8	0.695539
8.750000E-8	0.694773
1.000000E-7	0.697099
1.125000E-7	0.694849
1.250000E-7	0.696127
1.375000E-7	0.695376
1.500000E-7	0.696357
1.625000E-7	0.695599
1.750000E-7	0.694180
1.875000E-7	0.696792
2.000000E-7	0.697000
2.125000E-7	0.694050
2.250000E-7	0.696656
2.375000E-7	0.694014
2.500000E-7	0.696688
2.625000E-7	0.695276
2.750000E-7	0.695708
2.875000E-7	0.696469
3.000000E-7	0.695655
3.125000E-7	0.694816
3.250000E-7	0.695536
3.375000E-7	0.695019
3.500000E-7	0.696118
3.625000E-7	0.695229
3.750000E-7	0.695951
3.875000E-7	0.696628
4.000000E-7	0.695459
4.125000E-7	0.697145
4.250000E-7	0.695805
4.375000E-7	0.695992
4.500000E-7	0.695862
4.625000E-7	0.694424
4.750000E-7	0.695980
4.875000E-7	0.694734
5.000000E-7	0.695545
5.125000E-7	0.697586
5.250000E-7	0.693749
5.375000E-7	0.696665
5.500000E-7	0.695586
5.625000E-7	0.695379
5.750000E-7	0.695819
5.875000E-7	0.694915
6.000000E-7	0.695854
6.125000E-7	0.695444
6.250000E-7	0.694975
6.375000E-7	0.694908
6.500000E-7	0.694558
6.625000E-7	0.696741
6.750000E-7	0.696052
6.875000E-7	0.696200
7.000000E-7	0.696248
7.125000E-7	0.695493
7.250000E-7	0.696302
7.375000E-7	0.694768
7.500000E-7	0.697283
7.625000E-7	0.695950
7.750000E-7	0.694387
7.875000E-7	0.695903
8.000000E-7	0.695920
8.250000E-7	0.694740
8.500000E-7	0.695731
8.750000E-7	0.696257
9.000000E-7	0.695656
9.250000E-7	0.695655
9.500000E-7	0.695656
9.750000E-7	0.695847
1.000000E-6	0.696066
1.025000E-6	0.695482
1.050000E-6	0.696148
1.075000E-6	0.695088
1.100000E-6	0.696138
1.125000E-6	0.694946
1.150000E-6	0.696270
1.175000E-6	0.695064
1.200000E-6	0.696420
1.225000E-6	0.695767
1.250000E-6	0.695378
1.275000E-6	0.695124
1.300000E-6	0.695639
1.325000E-6	0.695560
1.350000E-6	0.695222
1.375000E-6	0.695159
1.400000E-6	0.695205
1.425000E-6	0.695805
1.450000E-6	0.695550
1.475000E-6	0.695777
1.500000E-6	0.694105
1.525000E-6	0.696218
1.550000E-6	0.696127
1.575000E-6	0.695354
1.600000E-6	0.694870
1.650000E-6	0.696439
1.700000E-6	0.695540
1.750000E-6	0.695673
1.800000E-6	0.695380
1.850000E-6	0.695622
1.900000E-6	0.695261
1.950000E-6	0.695458
2.000000E-6	0.696228
2.050000E-6	0.695490
2.100000E-6	0.695436
2.150000E-6	0.695349
2.200000E-6	0.695331
2.250000E-6	0.695058
2.300000E-6	0.695801
2.350000E-6	0.695244
2.400000E-6	0.695543
2.450000E-6	0.695612
2.500000E-6	0.694891
2.550000E-6	0.695722
2.600000E-6	0.695774
2.650000E-6	0.695716
2.700000E-6	0.695698
2.750000E-6	0.695948
2.800000E-6	0.695310
2.850000E-6	0.695593
2.900000E-6	0.695936
2.950000E-6	0.695730
3.000000E-6	0.695154
3.050000E-6	0.695619
3.100000E-6	0.695601
3.150000E-6	0.695181
3.200000E-6	0.695306
3.300000E-6	0.695660
3.400000E-6	0.695404
3.500000E-6	0.695401
3.600000E-6	0.695500
3.700000E-6	0.695329
3.800000E-6	0.695415
3.900000E-6	0.695557
4.000000E-6	0.695196
4.100000E-6	0.695618
4.200000E-6	0.695451
4.300000E-6	0.695125
4.400000E-6	0.695243
4.500000E-6	0.695362
4.600000E-6	0.695628
4.700000E-6	0.695348
4.800000E-6	0.695436
4.900000E-6	0.695095
5.000000E-6	0.695324
5.100000E-6	0.695070
5.200000E-6	0.694934
5.300000E-6	0.695330
5.400000E-6	0.695387
5.500000E-6	0.695072
5.600000E-6	0.695390
5.700000E-6	0.695237
5.800000E-6	0.695219
5.900000E-6	0.695367
6.000000E-6	0.695246
6.100000E-6	0.695066
6.200000E-6	0.694927
6.300000E-6	0.694972
6.400000E-6	0.695013
6.600000E-6	0.694839
6.800000E-6	0.695183
7.000000E-6	0.694952
7.200000E-6	0.695031
7.400000E-6	0.695088
7.600000E-6	0.694928
7.800000E-6	0.694818
8.000000E-6	0.694958
8.200000E-6	0.694869
8.400000E-6	0.694679
8.600000E-6	0.694905
8.800000E-6	0.694962
9.000000E-6	0.694666
9.200000E-6	0.694962
9.400000E-6	0.694597
9.600000E-6	0.694551
9.800000E-6	0.694589
1.000000E-5	0.694656
1.020000E-5	0.694698
1.040000E-5	0.694805
1.060000E-5	0.694559
1.080000E-5	0.694713
1.100000E-5	0.694502
1.120000E-5	0.694613
1.140000E-5	0.694905
1.160000E-5	0.694472
1.180000E-5	0.694425
1.200000E-5	0.694707
1.220000E-5	0.694646
1.240000E-5	0.694495
1.260000E-5	0.694619
1.280000E-5	0.694549
1.320000E-5	0.694366
1.360000E-5	0.694354
1.400000E-5	0.694424
1.440000E-5	0.694244
1.480000E-5	0.694352
1.520000E-5	0.694140
1.560000E-5	0.694236
1.600000E-5	0.694313
1.640000E-5	0.694060
1.680000E-5	0.694021
1.720000E-5	0.693927
1.760000E-5	0.694177
1.800000E-5	0.693960
1.840000E-5	0.693910
1.880000E-5	0.694039
1.920000E-5	0.693840
1.960000E-5	0.693894
2.000000E-5	0.693722
2.040000E-5	0.693714
2.080000E-5	0.693768
2.120000E-5	0.693768
2.160000E-5	0.693689
2.200000E-5	0.693741
2.240000E-5	0.693607
2.280000E-5	0.693561
2.320000E-5	0.693327
2.360000E-5	0.693375
2.400000E-5	0.693419
2.440000E-5	0.693194
2.480000E-5	0.693522
2.520000E-5	0.693263
2.560000E-5	0.693186
2.640000E-5	0.693178
2.720000E-5	0.693048
2.800000E-5	0.693067
2.880000E-5	0.692937
2.960000E-5	0.692855
3.040000E-5	0.692784
3.120000E-5	0.692679
3.200000E-5	0.692683
3.280000E-5	0.692556
3.360000E-5	0.692413
3.440000E-5	0.692216
3.520000E-5	0.692246
3.600000E-5	0.692257
3.680000E-5	0.692070
3.760000E-5	0.692002
3.840000E-5	0.692115
3.920000E-5	0.691946
4.000000E-5	0.691806
4.080000E-5	0.691799
4.160000E-5	0.691703
4.240000E-5	0.691620
4.320000E-5	0.691414
4.400000E-5	0.691519
4.480000E-5	0.691377
4.560000E-5	0.691367
4.640000E-5	0.691219
4.720000E-5	0.691254
4.800000E-5	0.691050
4.880000E-5	0.691091
4.960000E-5	0.690833
5.040000E-5	0.690759
5.120000E-5	0.690733
5.280000E-5	0.690723
5.440000E-5	0.690599
5.600000E-5	0.690391
5.760000E-5	0.690198
5.920000E-5	0.690093
6.080000E-5	0.689952
6.240000E-5	0.689716
6.400000E-5	0.689659
6.560000E-5	0.689427
6.720000E-5	0.689340
6.880000E-5	0.689052
7.040000E-5	0.688951
7.200000E-5	0.688799
7.360000E-5	0.688611
7.520000E-5	0.688555
7.680000E-5	0.688299
7.840000E-5	0.688267
8.000000E-5	0.688048
8.160000E-5	0.687905
8.320000E-5	0.687690
8.480000E-5	0.687583
8.640000E-5	0.687473
8.800000E-5	0.687296
8.960000E-5	0.687240
9.120000E-5	0.687016
9.280000E-5	0.686808
9.440000E-5	0.686670
9.600000E-5	0.686523
9.760000E-5	0.686403
9.920000E-5	0.686213
0.000101	0.686113
0.000102	0.685910
0.000106	0.685556
0.000109	0.685274
0.000112	0.684982
0.000115	0.684689
0.000118	0.684385
0.000122	0.684074
0.000125	0.683779
0.000128	0.683472
0.000131	0.683203
0.000134	0.682922
0.000138	0.682562
0.000141	0.682251
0.000144	0.681986
0.000147	0.681655
0.000150	0.681358
0.000154	0.681064
0.000157	0.680751
0.000160	0.680495
0.000163	0.680140
0.000166	0.679854
0.000170	0.679546
0.000173	0.679246
0.000176	0.678934
0.000179	0.678686
0.000182	0.678339
0.000186	0.678049
0.000189	0.677701
0.000192	0.677401
0.000195	0.677061
0.000198	0.676791
0.000202	0.676517
0.000205	0.676257
0.000211	0.675629
0.000218	0.674993
0.000224	0.674408
0.000230	0.673820
0.000237	0.673210
0.000243	0.672617
0.000250	0.672056
0.000256	0.671411
0.000262	0.670850
0.000269	0.670176
0.000275	0.669651
0.000282	0.669038
0.000288	0.668476
0.000294	0.667878
0.000301	0.667337
0.000307	0.666719
0.000314	0.666186
0.000320	0.665565
0.000326	0.664973
0.000333	0.664424
0.000339	0.663842
0.000346	0.663252
0.000352	0.662674
0.000358	0.662075
0.000365	0.661485
0.000371	0.660931
0.000378	0.660368
0.000384	0.659830
0.000390	0.659251
0.000397	0.658639
0.000403	0.658061
0.000410	0.657529
0.000422	0.656366
0.000435	0.655224
0.000448	0.654098
0.000461	0.652973
0.000474	0.651811
0.000486	0.650722
0.000499	0.649574
0.000512	0.648472
0.000525	0.647331
0.000538	0.646203
0.000550	0.645134
0.000563	0.644018
0.000576	0.642868
0.000589	0.641761
0.000602	0.640662
0.000614	0.639556
0.000627	0.638500
0.000640	0.637379
0.000653	0.636249
0.000666	0.635204
0.000678	0.634108
0.000691	0.633029
0.000704	0.631930
0.000717	0.630850
0.000730	0.629796
0.000742	0.628681
0.000755	0.627600
0.000768	0.626535
0.000781	0.625448
0.000794	0.624377
0.000806	0.623335
0.000819	0.622243
0.000845	0.620147
0.000870	0.618030
0.000896	0.615963
0.000922	0.613844
0.000947	0.611731
0.000973	0.609597
0.000998	0.607477
0.001024	0.605377
0.001050	0.603286
0.001075	0.601179
0.001101	0.599120
0.001126	0.597035
0.001152	0.594952
0.001178	0.592884
0.001203	0.590811
0.001229	0.588777
0.001254	0.586706
0.001280	0.584624
0.001306	0.582576
0.001331	0.580549
0.001357	0.578469
0.001382	0.576438
0.001408	0.574414
0.001434	0.572374
0.001459	0.570373
0.001485	0.568369
0.001510	0.566371
0.001536	0.564402
0.001562	0.562416
0.001587	0.560437
0.001613	0.558499
0.001638	0.556515
0.001690	0.552614
0.001741	0.548709
0.001792	0.544785
0.001843	0.540877
0.001894	0.537029
0.001946	0.533230
0.001997	0.529415
0.002048	0.525650
0.002099	0.521894
0.002150	0.518129
0.002202	0.514380
0.002253	0.510647
0.002304	0.506925
0.002355	0.503286
0.002406	0.499610
0.002458	0.495981
0.002509	0.492391
0.002560	0.488819
0.002611	0.485275
0.002662	0.481765
0.002714	0.478252
0.002765	0.474775
0.002816	0.471340
0.002867	0.467919
0.002918	0.464525
0.002970	0.461136
0.003021	0.457796
0.003072	0.454477
0.003123	0.451167
0.003174	0.447869
0.003226	0.444599
0.003277	0.441310
0.003379	0.434768
0.003482	0.428302
0.003584	0.421946
0.003686	0.415650
0.003789	0.409385
0.003891	0.403206
0.003994	0.397121
0.004096	0.391153
0.004198	0.385280
0.004301	0.379500
0.004403	0.373798
0.004506	0.368182
0.004608	0.362572
0.004710	0.357039
0.004813	0.351602
0.004915	0.346271
0.005018	0.341034
0.005120	0.335920
0.005222	0.330933
0.005325	0.326014
0.005427	0.321121
0.005530	0.316292
0.005632	0.311583
0.005734	0.306956
0.005837	0.302442
0.005939	0.298003
0.006042	0.293579
0.006144	0.289236
0.006246	0.284939
0.006349	0.280739
0.006451	0.276620
0.006554	0.272577
0.006758	0.264703
0.006963	0.256985
0.007168	0.249434
0.007373	0.242195
0.007578	0.235223
0.007782	0.228443
0.007987	0.221985
0.008192	0.215738
0.008397	0.209688
0.008602	0.203828
0.008806	0.198375
0.009011	0.193099
0.009216	0.187799
0.009421	0.182704
0.009626	0.177694
0.009830	0.172840
0.010035	0.167966
0.010240	0.163145
0.010445	0.158505
0.010650	0.154051
0.010854	0.149830
0.011059	0.145610
0.011264	0.141374
0.011469	0.137162
0.011674	0.132998
0.011878	0.128888
0.012083	0.124959
0.012288	0.121237
0.012493	0.117546
0.012698	0.114064
0.012902	0.110766
0.013107	0.107405
0.013517	0.100824
0.013926	0.095015
0.014336	0.089668
0.014746	0.084666
0.015155	0.079993
0.015565	0.075769
0.015974	0.071778
0.016384	0.068497
0.016794	0.065753
0.017203	0.063096
0.017613	0.060416
0.018022	0.057615
0.018432	0.054666
0.018842	0.051561
0.019251	0.048150
0.019661	0.044932
0.020070	0.042167
0.020480	0.039549
0.020890	0.037229
0.021299	0.035025
0.021709	0.033140
0.022118	0.031797
0.022528	0.030796
0.022938	0.029949
0.023347	0.029085
0.023757	0.028303
0.024166	0.027564
0.024576	0.026907
0.024986	0.026328
0.025395	0.025888
0.025805	0.025727
0.026214	0.025803
0.027034	0.026111
0.027853	0.025929
0.028672	0.026754
0.029491	0.027481
0.030310	0.027703
0.031130	0.028311
0.031949	0.028249
0.032768	0.026980
0.033587	0.025362
0.034406	0.023601
0.035226	0.022988
0.036045	0.022370
0.036864	0.022234
0.037683	0.022641
0.038502	0.023264
0.039322	0.023201
0.040141	0.022359
0.040960	0.021480
0.041779	0.021692
0.042598	0.021863
0.043418	0.021757
0.044237	0.021676
0.045056	0.021740
0.045875	0.020731
0.046694	0.019089
0.047514	0.018269
0.048333	0.018766
0.049152	0.020096
0.049971	0.022047
0.050790	0.024030
0.051610	0.026411
0.052429	0.028416
0.054067	0.029270
0.055706	0.026605
0.057344	0.021716
0.058982	0.014881
0.060621	0.008312
0.062259	0.003704
0.063898	-7.616641E-5
0.065536	-0.001472
0.067174	-0.001452
0.068813	-0.001890
0.070451	-0.002040
0.072090	-0.004428
0.073728	-0.004207
0.075366	-0.002844
0.077005	-0.004126
0.078643	-0.006203
0.080282	-0.008960
0.081920	-0.009994
0.083558	-0.008314
0.085197	-0.003664
0.086835	0.001366
0.088474	0.002811
0.090112	0.002296
0.091750	0.001648
0.093389	0.002705
0.095027	0.001337
0.096666	-0.000111
0.098304	-0.001770
0.099942	-0.000915
0.101581	-0.000856
0.103219	-0.001898
0.104858	-0.001332
0.108134	0.006872
0.111411	0.008984
0.114688	0.009281
0.117965	0.012650
0.121242	0.016907
0.124518	0.017261
0.127795	0.012157
0.131072	0.004843
0.134349	0.003718
0.137626	0.008784
0.140902	0.012729
0.144179	0.017038
0.147456	0.022378
0.150733	0.026387
0.154010	0.024820
0.157286	0.017054
0.160563	0.010396
0.163840	0.011979
0.167117	0.009078
0.170394	0.006619
0.173670	0.006457
0.176947	0.011872
0.180224	0.016574
0.183501	0.011537
0.186778	0.002946
0.190054	-0.002100
0.193331	1.807129E-5
0.196608	0.007227
0.199885	0.014167
0.203162	0.019882
0.206438	0.020414
0.209715	0.013801
0.216269	0.001867
0.222822	-0.005543
0.229376	-0.015990
0.235930	-0.016919
0.242483	-0.022870
0.249037	-0.011988
0.255590	0.004696
0.262144	0.008839
0.268698	0.014160
0.275251	0.011634
0.281805	0.010126
0.288358	0.013557
0.294912	0.006991
0.301466	0.003476
0.308019	-0.004103
0.314573	-0.006532
0.321126	-0.005425
0.327680	-0.004763
0.334234	-0.009488
0.340787	0.000532
0.347341	0.007155
0.353894	0.005714
0.360448	-0.000884
0.367002	-0.012868
0.373555	-0.019304
0.380109	-0.016885
0.386662	-0.001372
0.393216	0.011442
0.399770	0.013051
0.406323	0.022395
0.412877	0.013882
0.419430	-0.003976
0.432538	0.004777
0.445645	-0.004692
0.458752	-0.004614
0.471859	-0.017433
0.484966	-0.025568
0.498074	-0.013005
0.511181	-0.009802
0.524288	-0.005961
0.537395	-0.003747
0.550502	0.006850
0.563610	0.017738
0.576717	0.019234
0.589824	0.004774
0.602931	-0.007114
0.616038	-0.007412
0.629146	-0.009902
0.642253	-0.003787
0.655360	-0.003792
0.668467	0.014886
0.681574	0.014600
0.694682	-0.003790
0.707789	-0.016718
0.720896	-0.008890
0.734003	0.009361
0.747110	0.006374
0.760218	0.001203
0.773325	-0.008872
0.786432	-0.030036
0.799539	-0.007230
0.812646	0.007844
0.825754	0.020166
0.838861	0.007776
0.865075	0.020975
0.891290	0.001917
0.917504	-0.010905
0.943718	-0.000357
0.969933	-0.006190
0.996147	-0.003187
1.022362	-0.007174
1.048576	-0.026368
1.074790	-0.018030
1.101005	-0.002573
1.127219	-0.000567
1.153434	0.004147
1.179648	0.006124
1.205862	0.008318
1.232077	0.006469
1.258291	0.009784
1.284506	0.008724
1.310720	-0.006676
1.336934	0.001351
1.363149	-0.002505
1.389363	0.027695
1.415578	0.010765
1.441792	-0.006005
1.468006	-0.015527
1.494221	-0.005603
1.520435	0.017473
1.546650	0.020784
1.572864	0.007026
1.599078	0.026126
1.625293	0.007600
1.651507	0.004950
1.677722	0.013955
1.730150	0.002067
1.782579	0.010435
1.835008	-0.008045
1.887437	-0.025444
1.939866	-0.010551
1.992294	0.003062
2.044723	-0.003825
2.097152	0.004176
2.149581	0.004469
2.202010	-0.004178
2.254438	0.008307
2.306867	-0.000793
2.359296	-0.002797
2.411725	0.002027
2.464154	0.000475
2.516582	0.001211
2.569011	0.013600
2.621440	0.002201
2.673869	0.003825
2.726298	0.000381
2.778726	0.003766
2.831155	0.011089
2.883584	0.016087
2.936013	0.008166
2.988442	-0.001411
3.040870	-0.003265
3.093299	-0.004621
3.145728	0.016586
3.198157	0.011953
3.250586	-0.001990
3.303015	0.003345
3.355443	0.006405
3.460301	-0.007350
3.565158	-0.009972
3.670016	-0.009544
3.774873	0.000738
3.879731	-0.000330
3.984589	0.008430
4.089447	0.012286
4.194304	0.005767
4.299161	0.004611
4.404019	0.008972
4.508877	0.017392
4.613734	0.004478
4.718592	-0.009970
4.823450	-0.000663
4.928307	0.004144
5.033165	-0.015537
5.138022	0.014124
5.242880	-0.009045
5.347738	-0.010576
5.452595	0.000410
5.557453	-0.009881
5.662311	-0.002694
5.767168	0.003410
5.872025	-0.002650
5.976883	-0.002223
6.081741	0.011056
6.186598	-0.003031
6.291456	-0.008637
6.396314	-0.018687
6.501171	-0.015954
6.606029	-0.004683
6.710886	0.000527
6.920601	0.004424
7.130317	0.004481
7.340032	0.011335
7.549747	0.001475
7.759462	0.001229
7.969178	-0.008818
8.178893	-0.011766
8.388608	0.008875
8.598323	0.001304
8.808039	-0.006846
9.017754	0.000990
9.227468	0.004642
9.437184	-0.011774
9.646899	-0.014995
9.856614	-0.000913
10.066330	0.014656
10.276045	-6.330121E-5
10.485760	-0.013750
10.695476	-0.003360
10.905190	-0.008009
11.114905	-0.010364
11.324621	0.002161
11.534336	0.013472
11.744051	0.016470
11.953767	-0.010497
12.163482	-0.007152
12.373197	0.002880
12.582912	-0.006425
12.792627	-0.007193
13.002342	0.007536
13.212058	0.000624
13.421773	0.001278
13.841203	-0.001402
14.260633	-0.002320
14.680064	0.008168
15.099494	-0.002453
15.518925	0.000693
15.938355	0.002128
16.357786	0.005426
16.777216	-0.008187
17.196646	-0.006078
17.616077	0.007652
18.035507	-0.006229
18.454937	0.002449
18.874369	0.000000
19.293798	NaN
19.713228	NaN
20.132660	NaN
20.552090	NaN
20.971519	NaN
21.390951	NaN
21.810381	NaN
22.229811	NaN
22.649242	NaN
23.068672	NaN
23.488102	NaN
23.907534	NaN
24.326963	NaN
24.746393	NaN
25.165825	NaN
25.585255	NaN
26.004684	NaN
26.424116	NaN
26.843546	NaN
27.682405	NaN
28.521267	NaN
29.360128	NaN
30.198988	NaN
31.037849	NaN
31.876711	NaN
32.715572	NaN
33.554432	NaN
34.393291	NaN
35.232155	NaN
36.071014	NaN
36.909874	NaN
37.748737	NaN
38.587597	NaN
39.426456	NaN
40.265320	NaN
41.104179	NaN
41.943039	NaN
42.781902	NaN
43.620762	NaN
44.459621	NaN
45.298485	NaN
46.137344	NaN
46.976204	NaN
47.815067	NaN
48.653927	NaN
49.492786	NaN
50.331650	NaN
51.170509	NaN
52.009369	NaN
52.848232	NaN
53.687092	NaN
55.364811	NaN
57.042534	NaN
58.720257	NaN
60.397976	NaN
62.075699	NaN
63.753422	NaN
65.431145	NaN
67.108864	NaN
68.786583	NaN
70.464310	NaN
72.142029	NaN
73.819748	NaN
75.497475	NaN
77.175194	NaN
78.852913	NaN
80.530640	NaN
82.208359	NaN
83.886078	NaN
85.563805	NaN
87.241524	NaN
88.919243	NaN
90.596970	NaN
92.274689	NaN
93.952408	NaN
95.630135	NaN
97.307854	NaN
98.985573	NaN
100.663300	NaN
102.341019	NaN
104.018738	NaN
105.696465	NaN
107.374184	NaN
110.729622	NaN
114.085068	NaN
117.440514	NaN
120.795952	NaN
124.151398	NaN
127.506844	NaN
130.862289	NaN
134.217728	NaN
137.573166	NaN
140.928619	NaN
144.284058	NaN
147.639496	NaN
150.994949	NaN
154.350388	NaN
157.705826	NaN
161.061279	NaN
164.416718	NaN
167.772156	NaN
171.127609	NaN
174.483047	NaN
177.838486	NaN
181.193939	NaN
184.549377	NaN
187.904816	NaN
191.260269	NaN
194.615707	NaN
197.971146	NaN
201.326599	NaN
204.682037	NaN
208.037476	NaN
211.392929	NaN
214.748367	NaN
221.459244	NaN
228.170135	NaN
234.881027	NaN
241.591904	NaN
248.302795	NaN
255.013687	NaN
261.724579	NaN
268.435455	NaN
275.146332	NaN
281.857239	NaN
288.568115	NaN
295.278992	NaN
301.989899	NaN
308.700775	NaN
315.411652	NaN
322.122559	NaN
328.833435	NaN
335.544312	NaN
342.255219	NaN
348.966095	NaN
355.676971	NaN
362.387878	NaN
369.098755	NaN
375.809631	NaN
382.520538	NaN
389.231415	NaN
395.942291	NaN
402.653198	NaN
409.364075	NaN
416.074951	NaN
422.785858	NaN
429.496735	NaN
442.918488	NaN
456.340271	NaN
469.762054	NaN
483.183807	NaN
496.605591	NaN
510.027374	NaN
523.449158	NaN
536.870911	NaN
550.292664	NaN
563.714478	NaN
577.136230	NaN
590.557983	NaN
603.979797	NaN
617.401550	NaN
630.823303	NaN
644.245117	NaN
657.666870	NaN
671.088623	NaN
684.510437	NaN
697.932190	NaN
711.353943	NaN
724.775757	NaN
738.197510	NaN
751.619263	NaN
765.041077	NaN
778.462830	NaN
791.884583	NaN
805.306396	NaN
818.728149	NaN
832.149902	NaN
845.571716	NaN
858.993469	NaN
885.836975	NaN
912.680542	NaN
939.524109	NaN
966.367615	NaN
993.211182	NaN
1020.054749	NaN
1046.898315	NaN
1073.741821	NaN
1100.585327	NaN
1127.428955	NaN
1154.272461	NaN
1181.115967	NaN
1207.959595	NaN
1234.803101	NaN
1261.646606	NaN
1288.490234	NaN
1315.333740	NaN
1342.177246	NaN
1369.020874	NaN
1395.864380	NaN
1422.707886	NaN
1449.551514	NaN
1476.395020	NaN
1503.238525	NaN
1530.082153	NaN
1556.925659	NaN
1583.769165	NaN
1610.612793	NaN
1637.456299	NaN
1664.299805	NaN
1691.143433	NaN
1717.986938	NaN
1771.673950	NaN
1825.361084	NaN
1879.048218	NaN
1932.735229	NaN
1986.422363	NaN
2040.109497	NaN
2093.796631	NaN
2147.483643	NaN
2201.170654	NaN
2254.857910	NaN
2308.544922	NaN
2362.231934	NaN
2415.919189	NaN
2469.606201	NaN
2523.293213	NaN
2576.980469	NaN
2630.667480	NaN
2684.354492	NaN
2738.041748	NaN
2791.728760	NaN
2845.415771	NaN
2899.103027	NaN
2952.790039	NaN
3006.477051	NaN
3060.164307	NaN
3113.851318	NaN
3167.538330	NaN
3221.225586	NaN
3274.912598	NaN
3328.599609	NaN
3382.286865	NaN
3435.973877	NaN
0.000000	NaN
0.000000	NaN
0.000000	NaN
0.000000	NaN
0.000000	NaN
0.000000	NaN
0.000000	NaN
0.000000	NaN
0.000000	NaN
0.000000	NaN
0.000000	NaN
0.000000	NaN
0.000000	NaN
0.000000	NaN
0.000000	NaN
0.000000	NaN
0.000000	NaN
0.000000	NaN
0.000000	NaN
0.000000	NaN
0.000000	NaN
0.000000	NaN
0.000000	NaN
0.000000	NaN
0.000000	NaN
0.000000	NaN
0.000000	NaN
0.000000	NaN
0.000000	NaN
0.000000	NaN
0.000000	NaN
0.000000	NaN

Count Rate History (KHz)  CR CHA / CR CHB
0.000000	4013.195038	4186.630249
0.104858	3447.742462	3409.481049
0.209715	3184.242249	3294.458389
0.314573	3015.155792	3169.794083
0.419430	4152.622223	4118.824005
0.524288	2872.056961	2921.648026
0.629146	2723.827362	2852.020264
0.734003	2559.776306	2654.590607
0.838861	2837.934494	2875.938416
0.943718	4523.401260	4698.848724
1.048576	4516.801834	4587.402344
1.153434	1992.588043	2055.110931
1.258291	4584.951401	4625.234604
1.363149	2370.033264	2501.878738
1.468006	3075.876236	3109.245300
1.572864	3963.575363	4195.775986
1.677722	2957.057953	2928.619385
1.782579	1898.450851	1968.708038
1.887437	1570.196152	1590.986252
1.992294	3652.601242	3827.362061
2.097152	3350.391388	3453.779221
2.202010	2312.946320	2375.774384
2.306867	3894.224167	3964.138031
2.411725	3182.630539	3252.067566
2.516582	3188.772202	3445.100784
2.621440	3226.852417	3123.788834
2.726298	3468.465805	3601.560593
2.831155	3203.172684	3484.468460
2.936013	3637.933731	3713.035583
3.040870	4118.661880	4021.291733
3.145728	2503.032684	2613.868713
3.250586	2570.514679	2676.210403
3.355443	3306.798935	3493.242264
3.460301	2736.530304	2696.685791
3.565158	2456.350327	2463.264465
3.670016	2781.486511	2858.934402
3.774874	3787.574768	3997.373581
3.879731	4643.993378	4556.665421
3.984589	2275.648117	2420.520782
4.089446	2458.000183	2530.803680
4.194304	2840.490341	3274.583817
4.299162	3246.784210	3013.515472
4.404019	3994.588852	4031.524658
4.508877	3701.114655	3732.690811
4.613734	6110.143661	6063.556671
4.718592	2911.300659	3017.768860
4.823450	3020.601273	3086.919785
4.928307	1994.943619	2161.312103
5.033165	2986.545563	2975.482941
5.138022	2602.300644	2696.428299
5.242880	1886.911392	2123.861313
5.347738	3026.733398	3007.259369
5.452595	3025.665283	3247.680664
5.557453	2991.323471	2941.646576
5.662310	2245.521545	2381.687164
5.767168	2994.623184	3034.458160
5.872026	4433.956146	4544.363022
5.976883	1992.807388	2198.715210
6.081741	3405.570984	3380.174637
6.186598	4861.927032	4950.447083
6.291456	2225.627899	2300.119400
6.396314	2887.611389	2978.029251
6.501171	2504.444122	2598.791122
6.606029	2370.796204	2538.003922
6.710886	2370.805740	2380.609512
6.815744	3811.569214	3895.082474
6.920602	2841.014862	3199.777603
7.025459	4214.525223	4247.856140
7.130317	5705.003738	5527.667999
7.235174	4983.587265	5316.944122
7.340032	4184.560776	4181.613922
7.444890	3871.278763	3902.978897
7.549747	3884.029388	4077.739716
7.654605	3124.771118	3066.921234
7.759462	3912.401199	4094.839096
7.864320	3754.482269	3723.182678
7.969178	3147.153854	3348.646164
8.074035	2941.427231	2862.424850
8.178893	2219.600677	2365.045547
8.283750	2756.614685	2882.375717
8.388608	4213.905334	4339.685440
8.493466	3871.593475	3962.039948
8.598323	4218.921661	4160.442352
8.703181	4128.217697	4249.229431
8.808038	3372.344971	3499.202728
8.912896	4666.624069	4622.354507
9.017754	2738.609314	2840.127945
9.122611	3163.423538	3351.650238
9.227469	3766.078949	3782.701492
9.332326	2360.944748	2428.665161
9.437184	2002.801895	2296.791077
9.542042	4988.021851	4866.428375
9.646899	4808.101654	4882.669449
9.751757	2207.450867	2236.976624
9.856614	1927.604675	2032.413483
9.961472	2840.719223	2959.318161
10.066330	2697.677612	2900.257111
10.171187	3244.695663	3167.533875
10.276045	3776.483536	3869.047165
10.380902	2733.879089	2813.587189
10.485760	4279.222488	4315.061569
10.590618	3529.310226	3763.866425
10.695475	3441.362381	3415.231705
10.800333	3712.759018	3853.101730
10.905190	3715.324402	3991.603851
11.010048	2884.254456	2624.158859
11.114906	3266.706467	3414.783478
11.219763	3730.030060	3914.451599
11.324621	5262.203217	5515.842438
11.429478	2113.542557	1882.867813
11.534336	6893.892288	7065.372467
11.639194	6199.979782	6166.772842
11.744051	5042.171478	5315.618515
11.848909	3709.821701	3409.967422
11.953766	2774.543762	2859.201431
12.058624	1721.963882	1939.334869
12.163482	2987.823486	3200.540543
12.268339	8057.527542	7861.328125
12.373197	3323.736191	3189.315796
12.478054	4446.849823	4513.702393
12.582912	2101.602554	2137.966156
12.687770	1961.078644	2086.582184
12.792627	4053.201675	4103.231430
12.897485	4625.205994	4658.317566
13.002342	2694.368362	2999.000549
13.107200	5502.576828	5498.065948
13.212058	2464.265823	2414.903641
13.316915	3152.799606	3532.629013
13.421773	3770.790100	3577.213287
13.526630	1594.390869	1665.735245
13.631488	3593.826294	3866.291046
13.736346	4033.432007	3978.443146
13.841203	4029.636383	4087.886810
13.946061	3580.188751	3702.659607
14.050918	4681.930542	4755.411148
14.155776	2101.440430	2179.298401
14.260634	3165.140152	3406.562805
14.365491	3777.122498	3731.536865
14.470349	9026.670456	8828.859329
14.575206	3454.179764	3570.137024
14.680064	5088.853836	5222.711563
14.784922	5194.044113	5260.286331
14.889779	3283.834457	3325.061798
14.994637	2844.743729	2954.120636
15.099494	3002.595901	3066.091537
15.204352	2703.733444	3018.026352
15.309210	3361.616135	3331.689835
15.414067	2608.947754	2688.646317
15.518925	2209.615707	2274.341583
15.623782	4898.662567	4967.803955
15.728640	3192.739487	3453.254700
15.833498	3922.853470	3921.937943
15.938355	3790.655136	3989.772797
16.043213	3129.787445	3002.471924
16.148070	4811.124802	5057.315826
16.252928	5255.899429	5294.418335
16.357786	3070.430756	3093.099594
16.462643	5339.851379	5366.497040
16.567501	2650.709152	2673.635483
16.672358	2136.049271	2400.474548
16.777216	4383.335114	4295.330048
16.882074	3943.414688	4032.173157
16.986931	3149.070740	3289.318085
17.091789	3173.141479	3302.106857
17.196646	3174.257278	3198.022842
17.301504	2599.163055	2841.129303
17.406362	4074.716568	4140.052795
17.511219	2082.595825	2098.731995
17.616077	3751.907349	3911.018372
17.720934	4743.432999	5060.281754
17.825792	2374.401093	2151.908875
17.930650	2946.481705	3017.892838
18.035507	2952.709198	3106.994629
18.140365	1973.457336	2018.232346
18.245222	2524.080276	2677.469254
18.350080	2876.739502	2947.721481
18.454938	3909.959793	4067.192078
18.559795	5448.265076	5475.997925
18.664653	2773.399353	2905.616760
18.769510	3975.219727	3873.243332
18.874368	5869.293213	5957.565308
18.979226	3561.439514	3676.853180
19.084083	3308.744431	3388.900757
19.188941	1961.174011	2036.066055
19.293798	2340.707779	2544.116974
19.398656	2946.453094	2879.409790
19.503514	2369.136810	2569.465637
19.608371	4733.076096	4750.223160
19.713229	2269.372940	2331.733704
