1/9/2026	1:16 PM
Pseudo Cross Correlation
Scattering angle:	80.0
Duration (s):	20
Wavelength (nm):	632.8
Refractive index:	1.330
Viscosity (mPas):	0.712
Temperature (K):	308.6
Laser intensity (mW):	2.654223
Average Count rate  A (kHz):	38.0
Average Count rate  B (kHz):	34.9
Intercept:	0.8166
Cumulant 1st	58.26
Cumulant 2nd	51.57	17.52
Cumulant 3rd	53.29	9.40

Lag time (s)         g2-1
1.250000E-8	0.785947
2.500000E-8	0.728139
3.750000E-8	0.642949
5.000000E-8	1.023262
6.250000E-8	0.813329
7.500000E-8	0.682502
8.750000E-8	0.801159
1.000000E-7	0.892434
1.125000E-7	0.798117
1.250000E-7	0.852882
1.375000E-7	0.792032
1.500000E-7	0.840712
1.625000E-7	0.846797
1.750000E-7	0.852882
1.875000E-7	0.755522
2.000000E-7	0.855924
2.125000E-7	0.798117
2.250000E-7	0.645992
2.375000E-7	0.667289
2.500000E-7	0.673374
2.625000E-7	0.819414
2.750000E-7	0.998922
2.875000E-7	0.700757
3.000000E-7	0.834627
3.125000E-7	0.804202
3.250000E-7	0.816372
3.375000E-7	0.931987
3.500000E-7	0.995879
3.625000E-7	0.749437
3.750000E-7	0.792032
3.875000E-7	0.813329
4.000000E-7	0.779862
4.125000E-7	0.664247
4.250000E-7	0.989794
4.375000E-7	0.849839
4.500000E-7	0.816372
4.625000E-7	1.017177
4.750000E-7	0.892434
4.875000E-7	0.764649
5.000000E-7	0.770734
5.125000E-7	0.816372
5.250000E-7	0.840712
5.375000E-7	0.719012
5.500000E-7	0.764649
5.625000E-7	0.828542
5.750000E-7	0.877222
5.875000E-7	0.822457
6.000000E-7	0.779862
6.125000E-7	0.700757
6.250000E-7	0.804202
6.375000E-7	0.898519
6.500000E-7	0.719012
6.625000E-7	0.925902
6.750000E-7	0.858967
6.875000E-7	0.977624
7.000000E-7	1.029347
7.125000E-7	0.761607
7.250000E-7	0.764649
7.375000E-7	0.712927
7.500000E-7	0.874179
7.625000E-7	0.782904
7.750000E-7	0.764649
7.875000E-7	0.843754
8.000000E-7	0.792032
8.250000E-7	0.837669
8.500000E-7	0.820936
8.750000E-7	0.719012
9.000000E-7	0.787468
9.250000E-7	0.900041
9.500000E-7	0.752479
9.750000E-7	0.878743
1.000000E-6	0.881786
1.025000E-6	0.778341
1.050000E-6	0.839191
1.075000E-6	0.811808
1.100000E-6	0.799638
1.125000E-6	0.740309
1.150000E-6	0.840712
1.175000E-6	0.930466
1.200000E-6	0.757043
1.225000E-6	0.793553
1.250000E-6	0.828542
1.275000E-6	0.761607
1.300000E-6	0.787468
1.325000E-6	0.866573
1.350000E-6	0.823978
1.375000E-6	0.726618
1.400000E-6	0.729661
1.425000E-6	0.787468
1.450000E-6	0.717491
1.475000E-6	0.802681
1.500000E-6	0.836148
1.525000E-6	0.836148
1.550000E-6	0.790511
1.575000E-6	0.808766
1.600000E-6	0.746394
1.650000E-6	0.803441
1.700000E-6	0.783665
1.750000E-6	0.827781
1.800000E-6	0.805723
1.850000E-6	0.821696
1.900000E-6	0.854403
1.950000E-6	0.808766
2.000000E-6	0.799638
2.050000E-6	0.750958
2.100000E-6	0.866573
2.150000E-6	0.806484
2.200000E-6	0.825499
2.250000E-6	0.867334
2.300000E-6	0.801159
2.350000E-6	0.732703
2.400000E-6	0.733464
2.450000E-6	0.865812
2.500000E-6	0.779862
2.550000E-6	0.769213
2.600000E-6	0.814851
2.650000E-6	0.793553
2.700000E-6	0.817132
2.750000E-6	0.836909
2.800000E-6	0.722054
2.850000E-6	0.857446
2.900000E-6	0.857446
2.950000E-6	0.804202
3.000000E-6	0.781383
3.050000E-6	0.833866
3.100000E-6	0.766931
3.150000E-6	0.792032
3.200000E-6	0.829302
3.300000E-6	0.813710
3.400000E-6	0.781763
3.500000E-6	0.775678
3.600000E-6	0.798877
3.700000E-6	0.840712
3.800000E-6	0.820936
3.900000E-6	0.786707
4.000000E-6	0.777960
4.100000E-6	0.819414
4.200000E-6	0.870757
4.300000E-6	0.821696
4.400000E-6	0.792792
4.500000E-6	0.822457
4.600000E-6	0.780242
4.700000E-6	0.821316
4.800000E-6	0.818273
4.900000E-6	0.814851
5.000000E-6	0.777200
5.100000E-6	0.814851
5.200000E-6	0.841092
5.300000E-6	0.785186
5.400000E-6	0.803441
5.500000E-6	0.821316
5.600000E-6	0.780242
5.700000E-6	0.824358
5.800000E-6	0.802681
5.900000E-6	0.770354
6.000000E-6	0.800018
6.100000E-6	0.807244
6.200000E-6	0.779482
6.300000E-6	0.827021
6.400000E-6	0.726618
6.600000E-6	0.802490
6.800000E-6	0.814851
7.000000E-6	0.788989
7.200000E-6	0.808385
7.400000E-6	0.789940
7.600000E-6	0.829683
7.800000E-6	0.793173
8.000000E-6	0.807815
8.200000E-6	0.795074
8.400000E-6	0.780432
8.600000E-6	0.795645
8.800000E-6	0.814090
9.000000E-6	0.800589
9.200000E-6	0.808385
9.400000E-6	0.794504
9.600000E-6	0.790130
9.800000E-6	0.793173
1.000000E-5	0.777200
1.020000E-5	0.777960
1.040000E-5	0.756663
1.060000E-5	0.798307
1.080000E-5	0.790511
1.100000E-5	0.799258
1.120000E-5	0.775488
1.140000E-5	0.780813
1.160000E-5	0.774538
1.180000E-5	0.793553
1.200000E-5	0.782334
1.220000E-5	0.802490
1.240000E-5	0.823788
1.260000E-5	0.788039
1.280000E-5	0.800018
1.320000E-5	0.781573
1.360000E-5	0.775393
1.400000E-5	0.796215
1.440000E-5	0.790130
1.480000E-5	0.783665
1.520000E-5	0.764364
1.560000E-5	0.776534
1.600000E-5	0.792032
1.640000E-5	0.754666
1.680000E-5	0.774823
1.720000E-5	0.768738
1.760000E-5	0.735080
1.800000E-5	0.773016
1.840000E-5	0.765790
1.880000E-5	0.766551
1.920000E-5	0.760656
1.960000E-5	0.774633
2.000000E-5	0.768928
2.040000E-5	0.777770
2.080000E-5	0.786232
2.120000E-5	0.758755
2.160000E-5	0.744303
2.200000E-5	0.747535
2.240000E-5	0.774062
2.280000E-5	0.748962
2.320000E-5	0.764364
2.360000E-5	0.756948
2.400000E-5	0.757043
2.440000E-5	0.731943
2.480000E-5	0.744873
2.520000E-5	0.733939
2.560000E-5	0.749437
2.640000E-5	0.759040
2.720000E-5	0.746775
2.800000E-5	0.743495
2.880000E-5	0.757566
2.960000E-5	0.742068
3.040000E-5	0.730897
3.120000E-5	0.721722
3.200000E-5	0.736649
3.280000E-5	0.730659
3.360000E-5	0.724907
3.440000E-5	0.714591
3.520000E-5	0.728425
3.600000E-5	0.721246
3.680000E-5	0.702706
3.760000E-5	0.706937
3.840000E-5	0.705226
3.920000E-5	0.712071
4.000000E-5	0.733559
4.080000E-5	0.712404
4.160000E-5	0.718441
4.240000E-5	0.708078
4.320000E-5	0.705986
4.400000E-5	0.691867
4.480000E-5	0.699045
4.560000E-5	0.701898
4.640000E-5	0.696241
4.720000E-5	0.690679
4.800000E-5	0.695718
4.880000E-5	0.691487
4.960000E-5	0.672186
5.040000E-5	0.693674
5.120000E-5	0.682074
5.280000E-5	0.674816
5.440000E-5	0.679290
5.600000E-5	0.674654
5.760000E-5	0.664504
5.920000E-5	0.657990
6.080000E-5	0.661889
6.240000E-5	0.662176
6.400000E-5	0.651619
6.560000E-5	0.665621
6.720000E-5	0.643893
6.880000E-5	0.645605
7.040000E-5	0.644846
7.200000E-5	0.638618
7.360000E-5	0.646819
7.520000E-5	0.629252
7.680000E-5	0.629230
7.840000E-5	0.621101
8.000000E-5	0.612448
8.160000E-5	0.624857
8.320000E-5	0.611782
8.480000E-5	0.613755
8.640000E-5	0.599611
8.800000E-5	0.609714
8.960000E-5	0.602321
9.120000E-5	0.591053
9.280000E-5	0.594188
9.440000E-5	0.587580
9.600000E-5	0.582445
9.760000E-5	0.585131
9.920000E-5	0.583113
0.000101	0.577288
0.000102	0.574293
0.000106	0.569460
0.000109	0.561829
0.000112	0.563042
0.000115	0.557075
0.000118	0.556730
0.000122	0.539566
0.000125	0.534408
0.000128	0.525208
0.000131	0.519253
0.000134	0.508888
0.000138	0.508971
0.000141	0.499997
0.000144	0.504348
0.000147	0.498333
0.000150	0.481954
0.000154	0.480433
0.000157	0.477368
0.000160	0.472578
0.000163	0.467455
0.000166	0.458909
0.000170	0.468168
0.000173	0.461072
0.000176	0.451159
0.000179	0.443265
0.000182	0.450135
0.000186	0.430739
0.000189	0.436753
0.000192	0.425188
0.000195	0.418365
0.000198	0.420517
0.000202	0.411852
0.000205	0.410841
0.000211	0.398226
0.000218	0.388687
0.000224	0.382935
0.000230	0.373259
0.000237	0.368659
0.000243	0.356880
0.000250	0.350099
0.000256	0.343811
0.000262	0.337821
0.000269	0.330094
0.000275	0.325203
0.000282	0.315413
0.000288	0.312063
0.000294	0.309300
0.000301	0.302239
0.000307	0.290745
0.000314	0.291268
0.000320	0.282341
0.000326	0.272541
0.000333	0.264494
0.000339	0.269677
0.000346	0.260399
0.000352	0.257945
0.000358	0.251645
0.000365	0.248668
0.000371	0.239575
0.000378	0.234291
0.000384	0.225072
0.000390	0.230404
0.000397	0.220907
0.000403	0.219814
0.000410	0.211594
0.000422	0.203374
0.000435	0.197948
0.000448	0.188858
0.000461	0.181539
0.000474	0.175118
0.000486	0.171867
0.000499	0.163341
0.000512	0.161609
0.000525	0.150822
0.000538	0.147182
0.000550	0.145364
0.000563	0.139400
0.000576	0.131564
0.000589	0.129163
0.000602	0.127329
0.000614	0.123019
0.000627	0.118337
0.000640	0.113897
0.000653	0.111904
0.000666	0.110186
0.000678	0.102938
0.000691	0.101592
0.000704	0.097186
0.000717	0.092293
0.000730	0.088097
0.000742	0.090185
0.000755	0.084077
0.000768	0.079374
0.000781	0.078007
0.000794	0.075667
0.000806	0.073070
0.000819	0.070114
0.000845	0.067459
0.000870	0.061709
0.000896	0.057545
0.000922	0.054683
0.000947	0.052894
0.000973	0.049877
0.000998	0.048815
0.001024	0.045913
0.001050	0.039178
0.001075	0.039654
0.001101	0.037440
0.001126	0.035432
0.001152	0.033849
0.001178	0.033463
0.001203	0.034929
0.001229	0.031665
0.001254	0.028666
0.001280	0.024900
0.001306	0.026764
0.001331	0.025969
0.001357	0.023886
0.001382	0.025106
0.001408	0.023872
0.001434	0.024307
0.001459	0.024159
0.001485	0.022341
0.001510	0.020973
0.001536	0.026409
0.001562	0.024118
0.001587	0.023029
0.001613	0.025773
0.001638	0.025561
0.001690	0.025128
0.001741	0.024250
0.001792	0.026524
0.001843	0.025629
0.001894	0.029160
0.001946	0.025851
0.001997	0.027797
0.002048	0.025928
0.002099	0.024575
0.002150	0.024379
0.002202	0.022423
0.002253	0.018504
0.002304	0.018184
0.002355	0.017103
0.002406	0.015495
0.002458	0.019021
0.002509	0.017143
0.002560	0.014332
0.002611	0.015057
0.002662	0.013356
0.002714	0.011745
0.002765	0.012394
0.002816	0.012477
0.002867	0.011416
0.002918	0.009030
0.002970	0.009119
0.003021	0.009950
0.003072	0.009618
0.003123	0.011982
0.003174	0.010353
0.003226	0.009762
0.003277	0.010968
0.003379	0.011318
0.003482	0.014042
0.003584	0.012680
0.003686	0.013021
0.003789	0.012522
0.003891	0.011250
0.003994	0.012621
0.004096	0.011192
0.004198	0.011620
0.004301	0.009941
0.004403	0.009810
0.004506	0.010087
0.004608	0.011257
0.004710	0.009077
0.004813	0.008404
0.004915	0.007493
0.005018	0.009950
0.005120	0.011399
0.005222	0.008957
0.005325	0.009510
0.005427	0.009300
0.005530	0.011092
0.005632	0.011219
0.005734	0.010879
0.005837	0.010237
0.005939	0.008275
0.006042	0.009000
0.006144	0.010068
0.006246	0.010872
0.006349	0.009566
0.006451	0.008349
0.006554	0.007322
0.006758	0.006364
0.006963	0.006560
0.007168	0.008183
0.007373	0.013954
0.007578	0.014764
0.007782	0.013520
0.007987	0.011307
0.008192	0.008656
0.008397	0.005755
0.008602	0.002502
0.008806	0.001917
0.009011	0.005271
0.009216	0.007521
0.009421	0.007001
0.009626	0.008131
0.009830	0.009463
0.010035	0.010979
0.010240	0.009903
0.010445	0.007172
0.010650	0.009244
0.010854	0.005576
0.011059	0.006587
0.011264	0.008106
0.011469	0.011150
0.011674	0.012902
0.011878	0.013579
0.012083	0.010003
0.012288	0.008515
0.012493	0.010339
0.012698	0.013667
0.012902	0.015095
0.013107	0.011668
0.013517	0.007665
0.013926	0.007718
0.014336	0.007495
0.014746	0.006209
0.015155	0.010478
0.015565	0.011900
0.015974	0.015588
0.016384	0.015840
0.016794	0.011537
0.017203	0.007252
0.017613	0.005107
0.018022	0.003398
0.018432	0.003344
0.018842	0.005364
0.019251	0.010296
0.019661	0.009722
0.020070	0.005611
0.020480	0.005262
0.020890	0.005890
0.021299	0.007531
0.021709	0.005220
0.022118	0.003483
0.022528	0.003168
0.022938	0.002764
0.023347	0.008319
0.023757	0.010111
0.024166	0.008825
0.024576	0.002913
0.024986	-0.000587
0.025395	9.924507E-5
0.025805	0.003041
0.026214	0.002931
0.027034	0.005627
0.027853	0.006303
0.028672	0.003028
0.029491	0.004274
0.030310	0.005108
0.031130	0.007461
0.031949	0.005583
0.032768	0.005041
0.033587	0.005647
0.034406	0.002398
0.035226	0.003118
0.036045	0.005449
0.036864	0.007439
0.037683	0.007337
0.038502	0.007746
0.039322	0.009281
0.040141	0.006573
0.040960	0.001935
0.041779	0.002618
0.042598	0.005317
0.043418	0.010152
0.044237	0.004563
0.045056	0.004461
0.045875	0.004029
0.046694	0.001880
0.047514	0.006158
0.048333	0.004692
0.049152	0.009764
0.049971	0.008149
0.050790	0.004221
0.051610	0.003943
0.052429	0.004687
0.054067	0.001414
0.055706	-0.000685
0.057344	0.004324
0.058982	0.001569
0.060621	0.001610
0.062259	0.005421
0.063898	0.001946
0.065536	0.001699
0.067174	0.000209
0.068813	-0.000821
0.070451	0.003957
0.072090	0.005827
0.073728	0.005917
0.075366	0.002373
0.077005	0.004893
0.078643	0.006152
0.080282	0.003723
0.081920	0.006099
0.083558	0.002201
0.085197	0.001587
0.086835	0.004948
0.088474	0.003975
0.090112	0.004876
0.091750	0.002907
0.093389	-0.000404
0.095027	0.005622
0.096666	0.003671
0.098304	0.003856
0.099942	0.003502
0.101581	0.002848
0.103219	0.005544
0.104858	0.003653
0.108134	0.003921
0.111411	0.000596
0.114688	-0.000272
0.117965	0.001358
0.121242	-0.000653
0.124518	0.004667
0.127795	-8.582953E-5
0.131072	0.000601
0.134349	-0.000180
0.137626	0.001283
0.140902	-0.002156
0.144179	-0.004840
0.147456	0.003604
0.150733	0.001581
0.154010	-0.001155
0.157286	0.001288
0.160563	-0.000697
0.163840	-0.000154
0.167117	-0.003969
0.170394	-0.001174
0.173670	-0.000557
0.176947	-0.000912
0.180224	0.001015
0.183501	-0.004678
0.186778	-0.001992
0.190054	-0.000431
0.193331	-6.841683E-5
0.196608	0.000264
0.199885	-0.005163
0.203162	-0.001398
0.206438	0.000424
0.209715	0.003225
0.216269	0.002631
0.222822	-0.001123
0.229376	-0.002107
0.235930	-0.001342
0.242483	-0.001604
0.249037	-0.000238
0.255590	0.001774
0.262144	-0.001065
0.268698	0.001055
0.275251	0.000290
0.281805	-0.000216
0.288358	-0.000758
0.294912	0.000865
0.301466	-0.002169
0.308019	-0.001565
0.314573	-0.003625
0.321126	1.321115E-5
0.327680	-0.001335
0.334234	0.000919
0.340787	-0.001312
0.347341	0.000166
0.353894	0.000361
0.360448	1.927619E-5
0.367002	-0.002044
0.373555	-0.002948
0.380109	-0.000973
0.386662	-0.000687
0.393216	-0.004535
0.399770	-0.001115
0.406323	-0.000527
0.412877	-0.001736
0.419430	-8.657929E-5
0.432538	-0.000959
0.445645	0.000993
0.458752	0.000596
0.471859	0.000486
0.484966	0.002202
0.498074	-5.018955E-5
0.511181	-0.001252
0.524288	-0.002406
0.537395	1.764428E-5
0.550502	-0.000616
0.563610	0.001360
0.576717	0.000308
0.589824	0.000616
0.602931	-0.000707
0.616038	-0.000136
0.629146	0.000607
0.642253	-0.002503
0.655360	-0.000193
0.668467	0.001133
0.681574	0.002559
0.694682	-0.001530
0.707789	0.000809
0.720896	-0.000740
0.734003	0.000248
0.747110	0.000829
0.760218	-0.000650
0.773325	0.001751
0.786432	5.188293E-5
0.799539	0.000983
0.812646	0.000966
0.825754	-0.000446
0.838861	0.000215
0.865075	0.001606
0.891290	-0.000625
0.917504	-0.001780
0.943718	-0.001533
0.969933	-0.000850
0.996147	-0.001206
1.022362	-0.000535
1.048576	-0.001330
1.074790	-0.001201
1.101005	-0.000647
1.127219	-0.001563
1.153434	-0.000298
1.179648	6.996978E-5
1.205862	-0.001085
1.232077	0.000767
1.258291	-0.000285
1.284506	0.000243
1.310720	0.001776
1.336934	4.521142E-6
1.363149	0.000244
1.389363	0.001944
1.415578	-1.599362E-5
1.441792	0.001542
1.468006	0.000613
1.494221	0.000638
1.520435	0.001005
1.546650	-0.000349
1.572864	-0.001749
1.599078	-0.000666
1.625293	-0.001894
1.651507	-0.000902
1.677722	-0.000726
1.730150	-0.000630
1.782579	-0.001614
1.835008	5.528564E-5
1.887437	-1.691147E-5
1.939866	0.000115
1.992294	0.001016
2.044723	0.000769
2.097152	0.001148
2.149581	0.000721
2.202010	-0.000873
2.254438	-0.000620
2.306867	-6.542763E-6
2.359296	-0.000191
2.411725	-0.000369
2.464154	-0.000543
2.516582	-0.000256
2.569011	8.810312E-5
2.621440	-0.000932
2.673869	3.363076E-5
2.726298	0.001197
2.778726	0.001236
2.831155	0.000319
2.883584	4.818009E-5
2.936013	0.000400
2.988442	-0.001334
3.040870	-0.000771
3.093299	-0.001075
3.145728	0.001457
3.198157	-0.000454
3.250586	0.000836
3.303015	-0.000362
3.355443	-0.000238
3.460301	-0.001349
3.565158	-0.000991
3.670016	-0.001122
3.774873	0.000388
3.879731	-9.586124E-5
3.984589	0.000500
4.089447	3.981720E-5
4.194304	0.000557
4.299161	-0.001966
4.404019	0.000704
4.508877	0.002101
4.613734	0.000686
4.718592	-0.001091
4.823450	-0.002218
4.928307	-0.000494
5.033165	-6.686263E-5
5.138022	0.001418
5.242880	0.002162
5.347738	0.000173
5.452595	-0.001722
5.557453	-0.000999
5.662311	-0.000657
5.767168	0.000659
5.872025	0.001077
5.976883	-0.000260
6.081741	-0.001128
6.186598	-0.001022
6.291456	-0.001319
6.396314	0.001187
6.501171	0.000745
6.606029	0.000824
6.710886	-9.931735E-6
6.920601	-0.000878
7.130317	-0.001111
7.340032	0.001038
7.549747	-0.002265
7.759462	-0.001098
7.969178	-0.001011
8.178893	0.000640
8.388608	-0.001195
8.598323	-3.381724E-5
8.808039	-1.079971E-5
9.017754	0.001004
9.227468	-0.000438
9.437184	-0.000412
9.646899	0.003987
9.856614	-0.000662
10.066330	-0.000615
10.276045	0.000156
10.485760	0.000184
10.695476	-0.000638
10.905190	0.000814
11.114905	2.668270E-5
11.324621	-6.403500E-5
11.534336	-0.000426
11.744051	0.002747
11.953767	3.068297E-5
12.163482	0.000441
12.373197	-4.424069E-5
12.582912	0.000119
12.792627	-0.001934
13.002342	-0.000471
13.212058	-0.000514
13.421773	0.000853
13.841203	4.547533E-5
14.260633	-0.000240
14.680064	8.803477E-5
15.099494	0.000247
15.518925	6.016911E-5
15.938355	0.000130
16.357786	-0.000398
16.777216	0.000143
17.196646	3.050907E-5
17.616077	-0.000240
18.035507	0.000152
18.454937	0.000487
18.874369	0.000000
19.293798	NaN
19.713228	NaN
20.132660	NaN
20.552090	NaN
20.971519	NaN
21.390951	NaN
21.810381	NaN
22.229811	NaN
22.649242	NaN
23.068672	NaN
23.488102	NaN
23.907534	NaN
24.326963	NaN
24.746393	NaN
25.165825	NaN
25.585255	NaN
26.004684	NaN
26.424116	NaN
26.843546	NaN
27.682405	NaN
28.521267	NaN
29.360128	NaN
30.198988	NaN
31.037849	NaN
31.876711	NaN
32.715572	NaN
33.554432	NaN
34.393291	NaN
35.232155	NaN
36.071014	NaN
36.909874	NaN
37.748737	NaN
38.587597	NaN
39.426456	NaN
40.265320	NaN
41.104179	NaN
41.943039	NaN
42.781902	NaN
43.620762	NaN
44.459621	NaN
45.298485	NaN
46.137344	NaN
46.976204	NaN
47.815067	NaN
48.653927	NaN
49.492786	NaN
50.331650	NaN
51.170509	NaN
52.009369	NaN
52.848232	NaN
53.687092	NaN
55.364811	NaN
57.042534	NaN
58.720257	NaN
60.397976	NaN
62.075699	NaN
63.753422	NaN
65.431145	NaN
67.108864	NaN
68.786583	NaN
70.464310	NaN
72.142029	NaN
73.819748	NaN
75.497475	NaN
77.175194	NaN
78.852913	NaN
80.530640	NaN
82.208359	NaN
83.886078	NaN
85.563805	NaN
87.241524	NaN
88.919243	NaN
90.596970	NaN
92.274689	NaN
93.952408	NaN
95.630135	NaN
97.307854	NaN
98.985573	NaN
100.663300	NaN
102.341019	NaN
104.018738	NaN
105.696465	NaN
107.374184	NaN
110.729622	NaN
114.085068	NaN
117.440514	NaN
120.795952	NaN
124.151398	NaN
127.506844	NaN
130.862289	NaN
134.217728	NaN
137.573166	NaN
140.928619	NaN
144.284058	NaN
147.639496	NaN
150.994949	NaN
154.350388	NaN
157.705826	NaN
161.061279	NaN
164.416718	NaN
167.772156	NaN
171.127609	NaN
174.483047	NaN
177.838486	NaN
181.193939	NaN
184.549377	NaN
187.904816	NaN
191.260269	NaN
194.615707	NaN
197.971146	NaN
201.326599	NaN
204.682037	NaN
208.037476	NaN
211.392929	NaN
214.748367	NaN
221.459244	NaN
228.170135	NaN
234.881027	NaN
241.591904	NaN
248.302795	NaN
255.013687	NaN
261.724579	NaN
268.435455	NaN
275.146332	NaN
281.857239	NaN
288.568115	NaN
295.278992	NaN
301.989899	NaN
308.700775	NaN
315.411652	NaN
322.122559	NaN
328.833435	NaN
335.544312	NaN
342.255219	NaN
348.966095	NaN
355.676971	NaN
362.387878	NaN
369.098755	NaN
375.809631	NaN
382.520538	NaN
389.231415	NaN
395.942291	NaN
402.653198	NaN
409.364075	NaN
416.074951	NaN
422.785858	NaN
429.496735	NaN
442.918488	NaN
456.340271	NaN
469.762054	NaN
483.183807	NaN
496.605591	NaN
510.027374	NaN
523.449158	NaN
536.870911	NaN
550.292664	NaN
563.714478	NaN
577.136230	NaN
590.557983	NaN
603.979797	NaN
617.401550	NaN
630.823303	NaN
644.245117	NaN
657.666870	NaN
671.088623	NaN
684.510437	NaN
697.932190	NaN
711.353943	NaN
724.775757	NaN
738.197510	NaN
751.619263	NaN
765.041077	NaN
778.462830	NaN
791.884583	NaN
805.306396	NaN
818.728149	NaN
832.149902	NaN
845.571716	NaN
858.993469	NaN
885.836975	NaN
912.680542	NaN
939.524109	NaN
966.367615	NaN
993.211182	NaN
1020.054749	NaN
1046.898315	NaN
1073.741821	NaN
1100.585327	NaN
1127.428955	NaN
1154.272461	NaN
1181.115967	NaN
1207.959595	NaN
1234.803101	NaN
1261.646606	NaN
1288.490234	NaN
1315.333740	NaN
1342.177246	NaN
1369.020874	NaN
1395.864380	NaN
1422.707886	NaN
1449.551514	NaN
1476.395020	NaN
1503.238525	NaN
1530.082153	NaN
1556.925659	NaN
1583.769165	NaN
1610.612793	NaN
1637.456299	NaN
1664.299805	NaN
1691.143433	NaN
1717.986938	NaN
1771.673950	NaN
1825.361084	NaN
1879.048218	NaN
1932.735229	NaN
1986.422363	NaN
2040.109497	NaN
2093.796631	NaN
2147.483643	NaN
2201.170654	NaN
2254.857910	NaN
2308.544922	NaN
2362.231934	NaN
2415.919189	NaN
2469.606201	NaN
2523.293213	NaN
2576.980469	NaN
2630.667480	NaN
2684.354492	NaN
2738.041748	NaN
2791.728760	NaN
2845.415771	NaN
2899.103027	NaN
2952.790039	NaN
3006.477051	NaN
3060.164307	NaN
3113.851318	NaN
3167.538330	NaN
3221.225586	NaN
3274.912598	NaN
3328.599609	NaN
3382.286865	NaN
3435.973877	NaN
0.000000	NaN
0.000000	NaN
0.000000	NaN
0.000000	NaN
0.000000	NaN
0.000000	NaN
0.000000	NaN
0.000000	NaN
0.000000	NaN
0.000000	NaN
0.000000	NaN
0.000000	NaN
0.000000	NaN
0.000000	NaN
0.000000	NaN
0.000000	NaN
0.000000	NaN
0.000000	NaN
0.000000	NaN
0.000000	NaN
0.000000	NaN
0.000000	NaN
0.000000	NaN
0.000000	NaN
0.000000	NaN
0.000000	NaN
0.000000	NaN
0.000000	NaN
0.000000	NaN
0.000000	NaN
0.000000	NaN
0.000000	NaN

Count Rate History (KHz)  CR CHA / CR CHB
0.000000	37.794113	33.912659
0.104858	33.693314	31.042099
0.209715	40.273666	35.867691
0.314573	37.069321	31.595230
0.419430	34.523010	31.414032
0.524288	35.190582	32.825470
0.629146	44.546127	43.087006
0.734003	36.315918	33.330917
0.838861	37.555695	34.761429
0.943718	39.529800	37.097931
1.048576	35.696030	32.138824
1.153434	37.899017	34.112930
1.258291	34.399033	31.461716
1.363149	36.354065	34.132004
1.468006	40.636063	36.859512
1.572864	36.678314	34.227371
1.677722	42.114258	40.292740
1.782579	34.646988	31.280518
1.887437	37.488937	33.044815
1.992294	36.001205	33.092499
2.097152	33.426285	31.566620
2.202010	34.389496	32.215118
2.306867	42.858124	39.348602
2.411725	41.217804	39.691925
2.516582	35.753250	32.711029
2.621440	37.794113	34.074783
2.726298	33.702850	31.595230
2.831155	36.096573	31.518936
2.936013	40.874481	38.871765
3.040870	37.603378	34.141541
3.145728	36.830902	33.664703
3.250586	36.230087	33.655167
3.355443	40.969849	37.498474
3.460301	37.937164	33.664703
3.565158	34.341812	31.108856
3.670016	36.458969	34.465790
3.774874	40.283203	36.821365
3.879731	41.160583	37.803650
3.984589	36.735535	33.893585
4.089446	34.322739	31.595230
4.194304	37.651062	35.791397
4.299162	36.325455	33.988953
4.404019	38.900375	36.649704
4.508877	38.833618	36.344528
4.613734	38.585663	35.924911
4.718592	38.709641	35.324097
4.823450	31.805038	29.640198
4.928307	40.369034	37.384033
5.033165	34.351349	30.899048
5.138022	42.715073	39.958954
5.242880	39.834976	37.374496
5.347738	36.153793	32.987595
5.452595	37.984848	34.885406
5.557453	41.437149	38.299561
5.662310	40.616989	37.126541
5.767168	36.497116	33.054352
5.872026	41.112900	38.280487
5.976883	35.409927	32.424927
6.081741	37.117004	35.200119
6.186598	33.893585	29.764175
6.291456	36.725998	34.379959
6.396314	36.134720	32.415390
6.501171	36.525726	33.969879
6.606029	34.799576	31.452179
6.710886	37.775040	35.867691
6.815744	38.623810	35.934448
6.920602	38.766861	36.239624
7.025459	36.783218	33.273697
7.130317	36.249161	34.332275
7.235174	42.476654	38.585663
7.340032	38.614273	35.419464
7.444890	37.384033	33.359528
7.549747	42.037964	38.709641
7.654605	42.419434	38.928986
7.759462	35.848618	33.235550
7.864320	36.382675	33.512115
7.969178	35.753250	31.728745
8.074035	37.040710	33.264160
8.178893	37.345886	34.379959
8.283750	40.340424	35.495758
8.388608	43.964386	43.201447
8.493466	37.651062	31.518936
8.598323	35.572052	34.475327
8.703181	38.089752	35.495758
8.808038	40.435791	35.772324
8.912896	38.757324	35.352707
9.017754	35.057068	33.588409
9.122611	39.300919	38.986206
9.227469	37.021637	32.606125
9.332326	36.621094	32.129288
9.437184	35.972595	31.785965
9.542042	36.182404	34.074783
9.646899	63.199997	64.172745
9.751757	48.961639	48.007965
9.856614	37.326813	32.835007
9.961472	34.418106	30.651093
10.066330	36.754608	34.170151
10.171187	35.400391	31.528473
10.276045	37.651062	35.619736
10.380902	39.291382	35.619736
10.485760	45.738220	41.837692
10.590618	38.185120	34.999847
10.695475	39.873123	36.754608
10.800333	43.134689	38.852692
10.905190	38.223267	35.715103
11.010048	37.584305	34.770966
11.114906	41.389465	38.461685
11.219763	36.849976	32.701492
11.324621	35.705566	34.170151
11.429478	36.334991	32.005310
11.534336	36.907196	33.445358
11.639194	37.403107	33.712387
11.744051	35.247803	32.329559
11.848909	36.125183	33.349991
11.953766	32.005310	28.162003
12.058624	36.106110	32.892227
12.163482	35.333633	31.442642
12.268339	36.430359	31.166077
12.373197	38.719177	36.478043
12.478054	42.638779	41.322708
12.582912	41.503906	39.358139
12.687770	36.640167	32.377243
12.792627	40.340424	35.724640
12.897485	40.283203	38.032532
13.002342	40.512085	36.249161
13.107200	34.561157	31.890869
13.212058	37.155151	33.969879
13.316915	37.117004	34.170151
13.421773	32.072067	28.648376
13.526630	40.102005	35.886765
13.631488	38.499832	36.077499
13.736346	36.630630	34.418106
13.841203	37.717819	32.901764
13.946061	34.828186	32.119751
14.050918	38.080215	34.751892
14.155776	41.322708	39.300919
14.260634	38.928986	37.097931
14.365491	36.926270	33.473969
14.470349	35.305023	32.615662
14.575206	36.821365	32.100677
14.680064	37.403107	34.589767
14.784922	43.649673	40.712357
14.889779	39.453506	37.736893
14.994637	38.204193	34.971237
15.099494	34.046173	29.058456
15.204352	39.377213	37.431717
15.309210	37.183762	34.208298
15.414067	35.629272	33.817291
15.518925	37.708282	34.427643
15.623782	37.364960	35.619736
15.728640	35.495758	32.310486
15.833498	39.396286	34.894943
15.938355	32.854080	29.726028
16.043213	41.255951	38.690567
16.148070	36.773682	33.349991
16.252928	37.374496	35.772324
16.357786	37.364960	34.742355
16.462643	37.984848	35.495758
16.567501	34.065247	30.536652
16.672358	39.720535	36.182404
16.777216	41.313171	36.859512
16.882074	37.975311	33.721924
16.986931	37.946701	35.533905
17.091789	40.168762	37.784576
17.196646	34.770966	31.023026
17.301504	39.138794	36.592484
17.406362	35.972595	32.634735
17.511219	35.581589	33.426285
17.616077	36.315918	32.539368
17.720934	33.092499	29.802322
17.825792	34.866333	30.546188
17.930650	40.149689	37.775040
18.035507	36.010742	33.111572
18.140365	34.828186	31.557083
18.245222	34.961700	33.016205
18.350080	35.018921	31.309128
18.454938	33.931732	32.615662
18.559795	35.963058	30.841827
18.664653	37.784576	35.610199
18.769510	37.631989	34.198761
18.874368	38.280487	35.743713
18.979226	44.918060	42.247772
19.084083	37.059784	34.828186
19.188941	39.167404	34.780502
19.293798	42.591095	39.138794
19.398656	63.371658	63.409805
19.503514	38.404465	34.370422
19.608371	35.781860	32.615662
19.713229	35.648346	32.510757
