1/9/2026	1:17 PM
Pseudo Cross Correlation
Scattering angle:	90.0
Duration (s):	20
Wavelength (nm):	632.8
Refractive index:	1.330
Viscosity (mPas):	0.712
Temperature (K):	308.6
Laser intensity (mW):	2.652215
Average Count rate  A (kHz):	38.9
Average Count rate  B (kHz):	36.3
Intercept:	0.5945
Cumulant 1st	11684.45
Cumulant 2nd	4069.93	2018.74
Cumulant 3rd	2007.72	1111.23

Lag time (s)         g2-1
1.250000E-8	0.994709
2.500000E-8	0.897546
3.750000E-8	0.960416
5.000000E-8	1.111877
6.250000E-8	1.066153
7.500000E-8	0.977563
8.750000E-8	1.020429
1.000000E-7	1.011856
1.125000E-7	1.040433
1.250000E-7	0.923266
1.375000E-7	1.063295
1.500000E-7	1.106162
1.625000E-7	0.983278
1.750000E-7	1.063295
1.875000E-7	0.966132
2.000000E-7	1.069011
2.125000E-7	1.111877
2.250000E-7	1.006140
2.375000E-7	0.997567
2.500000E-7	1.011856
2.625000E-7	1.014714
2.750000E-7	1.066153
2.875000E-7	1.114735
3.000000E-7	1.006140
3.125000E-7	1.086157
3.250000E-7	0.983278
3.375000E-7	1.066153
3.500000E-7	0.980421
3.625000E-7	1.040433
3.750000E-7	1.003283
3.875000E-7	0.974705
4.000000E-7	1.017571
4.125000E-7	0.906119
4.250000E-7	1.043291
4.375000E-7	0.917550
4.500000E-7	1.031860
4.625000E-7	1.106162
4.750000E-7	1.008998
4.875000E-7	1.109019
5.000000E-7	1.123308
5.125000E-7	1.003283
5.250000E-7	1.089015
5.375000E-7	1.083300
5.500000E-7	1.017571
5.625000E-7	1.071869
5.750000E-7	0.991852
5.875000E-7	1.069011
6.000000E-7	1.114735
6.125000E-7	0.937554
6.250000E-7	1.034718
6.375000E-7	1.086157
6.500000E-7	1.029002
6.625000E-7	1.106162
6.750000E-7	0.960416
6.875000E-7	1.097588
7.000000E-7	0.994709
7.125000E-7	1.029002
7.250000E-7	1.057580
7.375000E-7	0.846106
7.500000E-7	0.951843
7.625000E-7	1.269053
7.750000E-7	1.126166
7.875000E-7	0.980421
8.000000E-7	0.968990
8.250000E-7	0.920408
8.500000E-7	0.958988
8.750000E-7	1.019000
9.000000E-7	0.898975
9.250000E-7	0.993281
9.500000E-7	1.027574
9.750000E-7	1.036147
1.000000E-6	1.099017
1.025000E-6	1.039005
1.050000E-6	0.994709
1.075000E-6	0.957559
1.100000E-6	1.013285
1.125000E-6	0.983278
1.150000E-6	1.093302
1.175000E-6	1.016142
1.200000E-6	0.957559
1.225000E-6	1.044720
1.250000E-6	1.059009
1.275000E-6	0.968990
1.300000E-6	0.924695
1.325000E-6	1.081871
1.350000E-6	1.049007
1.375000E-6	1.039005
1.400000E-6	1.023287
1.425000E-6	1.027574
1.450000E-6	0.924695
1.475000E-6	0.994709
1.500000E-6	1.127595
1.525000E-6	0.990423
1.550000E-6	0.956130
1.575000E-6	1.059009
1.600000E-6	1.079013
1.650000E-6	0.944699
1.700000E-6	1.008998
1.750000E-6	1.013285
1.800000E-6	1.012570
1.850000E-6	1.038290
1.900000E-6	0.942555
1.950000E-6	1.015428
2.000000E-6	1.024001
2.050000E-6	0.999710
2.100000E-6	0.959702
2.150000E-6	1.027574
2.200000E-6	1.097588
2.250000E-6	0.998282
2.300000E-6	1.060438
2.350000E-6	0.989708
2.400000E-6	1.062581
2.450000E-6	1.056151
2.500000E-6	1.035432
2.550000E-6	0.979706
2.600000E-6	1.032575
2.650000E-6	0.937554
2.700000E-6	0.972562
2.750000E-6	0.994709
2.800000E-6	1.002568
2.850000E-6	1.043291
2.900000E-6	0.974705
2.950000E-6	1.019715
3.000000E-6	1.037576
3.050000E-6	1.055437
3.100000E-6	0.954701
3.150000E-6	1.007569
3.200000E-6	1.025430
3.300000E-6	1.022930
3.400000E-6	1.016142
3.500000E-6	1.030789
3.600000E-6	0.972919
3.700000E-6	1.041505
3.800000E-6	1.065439
3.900000E-6	1.005783
4.000000E-6	0.991137
4.100000E-6	0.975420
4.200000E-6	0.967918
4.300000E-6	1.036861
4.400000E-6	0.975062
4.500000E-6	0.982921
4.600000E-6	1.007212
4.700000E-6	0.961131
4.800000E-6	1.010070
4.900000E-6	1.002211
5.000000E-6	0.982564
5.100000E-6	1.026502
5.200000E-6	0.997210
5.300000E-6	1.006140
5.400000E-6	0.998282
5.500000E-6	1.007926
5.600000E-6	0.999353
5.700000E-6	0.983278
5.800000E-6	1.015428
5.900000E-6	0.985779
6.000000E-6	1.008641
6.100000E-6	1.005783
6.200000E-6	1.068654
6.300000E-6	1.004354
6.400000E-6	1.030431
6.600000E-6	0.997567
6.800000E-6	1.013285
7.000000E-6	0.992209
7.200000E-6	0.975420
7.400000E-6	1.011677
7.600000E-6	0.999710
7.800000E-6	0.995781
8.000000E-6	0.989530
8.200000E-6	0.982564
8.400000E-6	0.975062
8.600000E-6	1.004533
8.800000E-6	0.968632
9.000000E-6	0.988279
9.200000E-6	0.977384
9.400000E-6	1.005605
9.600000E-6	1.003283
9.800000E-6	1.006498
1.000000E-5	0.948271
1.020000E-5	0.985422
1.040000E-5	0.989708
1.060000E-5	1.007569
1.080000E-5	0.989173
1.100000E-5	0.972562
1.120000E-5	1.021322
1.140000E-5	0.961488
1.160000E-5	0.985600
1.180000E-5	0.967204
1.200000E-5	0.975420
1.220000E-5	1.003104
1.240000E-5	0.939341
1.260000E-5	0.952379
1.280000E-5	0.972205
1.320000E-5	0.959791
1.360000E-5	0.989798
1.400000E-5	0.999621
1.440000E-5	0.969972
1.480000E-5	0.959791
1.520000E-5	0.955415
1.560000E-5	0.972026
1.600000E-5	0.972740
1.640000E-5	0.980956
1.680000E-5	0.968186
1.720000E-5	0.949075
1.760000E-5	0.949789
1.800000E-5	0.961756
1.840000E-5	0.963631
1.880000E-5	0.963453
1.920000E-5	0.972740
1.960000E-5	0.951575
2.000000E-5	0.963006
2.040000E-5	0.970151
2.080000E-5	0.958094
2.120000E-5	0.970061
2.160000E-5	0.955951
2.200000E-5	0.954344
2.240000E-5	0.973901
2.280000E-5	0.967114
2.320000E-5	0.919693
2.360000E-5	0.944431
2.400000E-5	0.946842
2.440000E-5	0.946217
2.480000E-5	0.923266
2.520000E-5	0.919068
2.560000E-5	0.923712
2.640000E-5	0.930410
2.720000E-5	0.929160
2.800000E-5	0.933491
2.880000E-5	0.944922
2.960000E-5	0.908128
3.040000E-5	0.933714
3.120000E-5	0.917506
3.200000E-5	0.913085
3.280000E-5	0.922015
3.360000E-5	0.908932
3.440000E-5	0.912951
3.520000E-5	0.913174
3.600000E-5	0.902056
3.680000E-5	0.909691
3.760000E-5	0.902190
3.840000E-5	0.896162
3.920000E-5	0.920363
4.000000E-5	0.894733
4.080000E-5	0.896072
4.160000E-5	0.909825
4.240000E-5	0.896921
4.320000E-5	0.891696
4.400000E-5	0.882855
4.480000E-5	0.875264
4.560000E-5	0.897457
4.640000E-5	0.874416
4.720000E-5	0.883436
4.800000E-5	0.877363
4.880000E-5	0.868834
4.960000E-5	0.869727
5.040000E-5	0.860440
5.120000E-5	0.878345
5.280000E-5	0.871599
5.440000E-5	0.853137
5.600000E-5	0.854144
5.760000E-5	0.853410
5.920000E-5	0.835841
6.080000E-5	0.853633
6.240000E-5	0.839638
6.400000E-5	0.833120
6.560000E-5	0.830535
6.720000E-5	0.831070
6.880000E-5	0.829485
7.040000E-5	0.810532
7.200000E-5	0.819194
7.360000E-5	0.799484
7.520000E-5	0.797765
7.680000E-5	0.798480
7.840000E-5	0.803598
8.000000E-5	0.793931
8.160000E-5	0.782926
8.320000E-5	0.781899
8.480000E-5	0.790426
8.640000E-5	0.782546
8.800000E-5	0.775693
8.960000E-5	0.771741
9.120000E-5	0.781832
9.280000E-5	0.778483
9.440000E-5	0.761963
9.600000E-5	0.754309
9.760000E-5	0.759510
9.920000E-5	0.749576
0.000101	0.754443
0.000102	0.745357
0.000106	0.735489
0.000109	0.730857
0.000112	0.728535
0.000115	0.724090
0.000118	0.707716
0.000122	0.707303
0.000125	0.705763
0.000128	0.689969
0.000131	0.685961
0.000134	0.679912
0.000138	0.679979
0.000141	0.666071
0.000144	0.658414
0.000147	0.655110
0.000150	0.656583
0.000154	0.651652
0.000157	0.638206
0.000160	0.636520
0.000163	0.637112
0.000166	0.627232
0.000170	0.617644
0.000173	0.605734
0.000176	0.607263
0.000179	0.596952
0.000182	0.597420
0.000186	0.588321
0.000189	0.592126
0.000192	0.580506
0.000195	0.574211
0.000198	0.571867
0.000202	0.565583
0.000205	0.562817
0.000211	0.554339
0.000218	0.539167
0.000224	0.537338
0.000230	0.528351
0.000237	0.520540
0.000243	0.509661
0.000250	0.511443
0.000256	0.504713
0.000262	0.494349
0.000269	0.484519
0.000275	0.474445
0.000282	0.468939
0.000288	0.471028
0.000294	0.456551
0.000301	0.443402
0.000307	0.445636
0.000314	0.441769
0.000320	0.432551
0.000326	0.425007
0.000333	0.425028
0.000339	0.412874
0.000346	0.410847
0.000352	0.405139
0.000358	0.400540
0.000365	0.396014
0.000371	0.389628
0.000378	0.386246
0.000384	0.381894
0.000390	0.379513
0.000397	0.368787
0.000403	0.364791
0.000410	0.365998
0.000422	0.355715
0.000435	0.349955
0.000448	0.347387
0.000461	0.338109
0.000474	0.327751
0.000486	0.325219
0.000499	0.319269
0.000512	0.315867
0.000525	0.311794
0.000538	0.301884
0.000550	0.298028
0.000563	0.294432
0.000576	0.291068
0.000589	0.291336
0.000602	0.282176
0.000614	0.284314
0.000627	0.278053
0.000640	0.271205
0.000653	0.268799
0.000666	0.267095
0.000678	0.268215
0.000691	0.259350
0.000704	0.260010
0.000717	0.259790
0.000730	0.254448
0.000742	0.252146
0.000755	0.246212
0.000768	0.245162
0.000781	0.246300
0.000794	0.245008
0.000806	0.244031
0.000819	0.239774
0.000845	0.233801
0.000870	0.232867
0.000896	0.226862
0.000922	0.225396
0.000947	0.226906
0.000973	0.223760
0.000998	0.224961
0.001024	0.221440
0.001050	0.218812
0.001075	0.217083
0.001101	0.216053
0.001126	0.216637
0.001152	0.218448
0.001178	0.216210
0.001203	0.213019
0.001229	0.215644
0.001254	0.213557
0.001280	0.214841
0.001306	0.209034
0.001331	0.208215
0.001357	0.206885
0.001382	0.209056
0.001408	0.209924
0.001434	0.209539
0.001459	0.208815
0.001485	0.209029
0.001510	0.203524
0.001536	0.205923
0.001562	0.205973
0.001587	0.206392
0.001613	0.209519
0.001638	0.206695
0.001690	0.205910
0.001741	0.207357
0.001792	0.206419
0.001843	0.203988
0.001894	0.202087
0.001946	0.201324
0.001997	0.201146
0.002048	0.197081
0.002099	0.196810
0.002150	0.196860
0.002202	0.196801
0.002253	0.196903
0.002304	0.193510
0.002355	0.191681
0.002406	0.189363
0.002458	0.188478
0.002509	0.186416
0.002560	0.186516
0.002611	0.188284
0.002662	0.191852
0.002714	0.191096
0.002765	0.191543
0.002816	0.193457
0.002867	0.192711
0.002918	0.192437
0.002970	0.192981
0.003021	0.195288
0.003072	0.194940
0.003123	0.198232
0.003174	0.199370
0.003226	0.198594
0.003277	0.195769
0.003379	0.193258
0.003482	0.193879
0.003584	0.192613
0.003686	0.190936
0.003789	0.191798
0.003891	0.191410
0.003994	0.189882
0.004096	0.191063
0.004198	0.193665
0.004301	0.192248
0.004403	0.191283
0.004506	0.189780
0.004608	0.189336
0.004710	0.187848
0.004813	0.189537
0.004915	0.189843
0.005018	0.190405
0.005120	0.190066
0.005222	0.186639
0.005325	0.183926
0.005427	0.182435
0.005530	0.183930
0.005632	0.187998
0.005734	0.187317
0.005837	0.188451
0.005939	0.189733
0.006042	0.190792
0.006144	0.190488
0.006246	0.189169
0.006349	0.187593
0.006451	0.189373
0.006554	0.189550
0.006758	0.192607
0.006963	0.194226
0.007168	0.188996
0.007373	0.186312
0.007578	0.187199
0.007782	0.185038
0.007987	0.188013
0.008192	0.188067
0.008397	0.188253
0.008602	0.185688
0.008806	0.182775
0.009011	0.185523
0.009216	0.184871
0.009421	0.184096
0.009626	0.186169
0.009830	0.187657
0.010035	0.188454
0.010240	0.183541
0.010445	0.180524
0.010650	0.179468
0.010854	0.177347
0.011059	0.180114
0.011264	0.181950
0.011469	0.174605
0.011674	0.175422
0.011878	0.178473
0.012083	0.180020
0.012288	0.178426
0.012493	0.177838
0.012698	0.180881
0.012902	0.181740
0.013107	0.182059
0.013517	0.180171
0.013926	0.186618
0.014336	0.181455
0.014746	0.176268
0.015155	0.174972
0.015565	0.173559
0.015974	0.167249
0.016384	0.163630
0.016794	0.169513
0.017203	0.174936
0.017613	0.173242
0.018022	0.170088
0.018432	0.171144
0.018842	0.167992
0.019251	0.167290
0.019661	0.166355
0.020070	0.165283
0.020480	0.161296
0.020890	0.162609
0.021299	0.159720
0.021709	0.156965
0.022118	0.159027
0.022528	0.154805
0.022938	0.158915
0.023347	0.162269
0.023757	0.161078
0.024166	0.156425
0.024576	0.159446
0.024986	0.163920
0.025395	0.162342
0.025805	0.157511
0.026214	0.151481
0.027034	0.152983
0.027853	0.148131
0.028672	0.143258
0.029491	0.144727
0.030310	0.146867
0.031130	0.147398
0.031949	0.145617
0.032768	0.146190
0.033587	0.139380
0.034406	0.139626
0.035226	0.137136
0.036045	0.140975
0.036864	0.138684
0.037683	0.138163
0.038502	0.137162
0.039322	0.133949
0.040141	0.128549
0.040960	0.135703
0.041779	0.138147
0.042598	0.137208
0.043418	0.133660
0.044237	0.141826
0.045056	0.147387
0.045875	0.141989
0.046694	0.131484
0.047514	0.135964
0.048333	0.139117
0.049152	0.138752
0.049971	0.139295
0.050790	0.139342
0.051610	0.141702
0.052429	0.140572
0.054067	0.141398
0.055706	0.149582
0.057344	0.143591
0.058982	0.137527
0.060621	0.131749
0.062259	0.138855
0.063898	0.139479
0.065536	0.142666
0.067174	0.136823
0.068813	0.140173
0.070451	0.144645
0.072090	0.141368
0.073728	0.141688
0.075366	0.143359
0.077005	0.146438
0.078643	0.142201
0.080282	0.143495
0.081920	0.143431
0.083558	0.140360
0.085197	0.140469
0.086835	0.140436
0.088474	0.149746
0.090112	0.149082
0.091750	0.148630
0.093389	0.144860
0.095027	0.140576
0.096666	0.142973
0.098304	0.147433
0.099942	0.140513
0.101581	0.142307
0.103219	0.145013
0.104858	0.139410
0.108134	0.133616
0.111411	0.128885
0.114688	0.127081
0.117965	0.124612
0.121242	0.122222
0.124518	0.115398
0.127795	0.113686
0.131072	0.105887
0.134349	0.104376
0.137626	0.107207
0.140902	0.104439
0.144179	0.101536
0.147456	0.107341
0.150733	0.100049
0.154010	0.100205
0.157286	0.097932
0.160563	0.094637
0.163840	0.092895
0.167117	0.095013
0.170394	0.088666
0.173670	0.090216
0.176947	0.093444
0.180224	0.091019
0.183501	0.093006
0.186778	0.089749
0.190054	0.094422
0.193331	0.093200
0.196608	0.089759
0.199885	0.085926
0.203162	0.084680
0.206438	0.077380
0.209715	0.074058
0.216269	0.067413
0.222822	0.060950
0.229376	0.055643
0.235930	0.052291
0.242483	0.049014
0.249037	0.051957
0.255590	0.044380
0.262144	0.040667
0.268698	0.041955
0.275251	0.036382
0.281805	0.030733
0.288358	0.027886
0.294912	0.029364
0.301466	0.023191
0.308019	0.023234
0.314573	0.020432
0.321126	0.025493
0.327680	0.022831
0.334234	0.019823
0.340787	0.022615
0.347341	0.015765
0.353894	0.014320
0.360448	0.015147
0.367002	0.011518
0.373555	0.008613
0.380109	0.007204
0.386662	0.008379
0.393216	0.006930
0.399770	0.003375
0.406323	0.001982
0.412877	-0.000550
0.419430	0.002411
0.432538	-0.002599
0.445645	-0.001475
0.458752	-0.002334
0.471859	-0.002482
0.484966	-0.002509
0.498074	-0.005106
0.511181	-0.002422
0.524288	-0.002382
0.537395	-0.003600
0.550502	-0.001270
0.563610	-0.000248
0.576717	-0.002315
0.589824	-0.001986
0.602931	-0.000594
0.616038	-0.000428
0.629146	-0.002164
0.642253	-0.002137
0.655360	-0.001114
0.668467	-0.002039
0.681574	-0.002822
0.694682	-0.003825
0.707789	-0.001850
0.720896	-0.001571
0.734003	-0.001199
0.747110	0.000993
0.760218	-0.001535
0.773325	-0.002226
0.786432	-0.004867
0.799539	-0.005078
0.812646	-0.004559
0.825754	-0.003601
0.838861	-0.005164
0.865075	-0.003001
0.891290	-0.005556
0.917504	-0.004376
0.943718	-0.003463
0.969933	-0.005205
0.996147	-0.004927
1.022362	-0.003843
1.048576	0.002119
1.074790	0.001819
1.101005	0.005019
1.127219	0.002448
1.153434	0.005776
1.179648	0.005584
1.205862	0.009848
1.232077	0.009160
1.258291	0.010718
1.284506	0.011728
1.310720	0.009614
1.336934	0.010547
1.363149	0.008929
1.389363	0.012097
1.415578	0.009265
1.441792	0.006587
1.468006	0.002812
1.494221	0.001315
1.520435	0.001475
1.546650	0.002825
1.572864	-5.896035E-5
1.599078	-0.002018
1.625293	-0.002682
1.651507	-0.005191
1.677722	-0.004375
1.730150	-0.004646
1.782579	-0.005424
1.835008	-0.005525
1.887437	-0.002824
1.939866	-0.001710
1.992294	-0.003844
2.044723	-0.007500
2.097152	-0.008171
2.149581	-0.007914
2.202010	-0.009914
2.254438	-0.008744
2.306867	-0.007881
2.359296	-0.009872
2.411725	-0.007775
2.464154	-0.006773
2.516582	-0.007420
2.569011	-0.007110
2.621440	-0.003893
2.673869	-0.003943
2.726298	-0.003572
2.778726	-0.000490
2.831155	-0.002900
2.883584	-0.005211
2.936013	-0.005011
2.988442	-0.002135
3.040870	-0.000668
3.093299	0.004096
3.145728	0.011411
3.198157	0.014646
3.250586	0.018117
3.303015	0.018775
3.355443	0.014844
3.460301	0.003555
3.565158	-0.005475
3.670016	-0.008537
3.774873	-0.009119
3.879731	-0.007189
3.984589	-0.008545
4.089447	-0.008554
4.194304	-0.011883
4.299161	-0.012354
4.404019	-0.010582
4.508877	-0.008638
4.613734	-0.007876
4.718592	-0.008755
4.823450	-0.007692
4.928307	-0.007530
5.033165	-0.008717
5.138022	-0.009197
5.242880	-0.011944
5.347738	-0.015540
5.452595	-0.015104
5.557453	-0.013357
5.662311	-0.011172
5.767168	-0.008898
5.872025	-0.007131
5.976883	-0.003425
6.081741	-0.000887
6.186598	-0.000190
6.291456	0.000649
6.396314	0.002532
6.501171	-0.000495
6.606029	-0.005035
6.710886	-0.008033
6.920601	-0.009501
7.130317	-0.013916
7.340032	-0.012300
7.549747	-0.013265
7.759462	0.001324
7.969178	0.011658
8.178893	-0.002125
8.388608	0.000570
8.598323	0.000756
8.808039	-0.000667
9.017754	-0.003738
9.227468	-0.005809
9.437184	-0.003213
9.646899	0.006281
9.856614	0.001645
10.066330	0.002044
10.276045	0.002619
10.485760	-0.002841
10.695476	-0.005770
10.905190	-0.004073
11.114905	0.003044
11.324621	0.003656
11.534336	-0.002643
11.744051	-0.002596
11.953767	-0.000118
12.163482	-0.000455
12.373197	0.001283
12.582912	-0.000393
12.792627	-0.000466
13.002342	-0.001154
13.212058	-0.000538
13.421773	0.000169
13.841203	0.000290
14.260633	-0.000283
14.680064	9.319757E-5
15.099494	0.000639
15.518925	-0.000838
15.938355	-0.000700
16.357786	0.001072
16.777216	0.001417
17.196646	-0.001198
17.616077	-0.000114
18.035507	1.337311E-5
18.454937	-0.000320
18.874369	0.000000
19.293798	NaN
19.713228	NaN
20.132660	NaN
20.552090	NaN
20.971519	NaN
21.390951	NaN
21.810381	NaN
22.229811	NaN
22.649242	NaN
23.068672	NaN
23.488102	NaN
23.907534	NaN
24.326963	NaN
24.746393	NaN
25.165825	NaN
25.585255	NaN
26.004684	NaN
26.424116	NaN
26.843546	NaN
27.682405	NaN
28.521267	NaN
29.360128	NaN
30.198988	NaN
31.037849	NaN
31.876711	NaN
32.715572	NaN
33.554432	NaN
34.393291	NaN
35.232155	NaN
36.071014	NaN
36.909874	NaN
37.748737	NaN
38.587597	NaN
39.426456	NaN
40.265320	NaN
41.104179	NaN
41.943039	NaN
42.781902	NaN
43.620762	NaN
44.459621	NaN
45.298485	NaN
46.137344	NaN
46.976204	NaN
47.815067	NaN
48.653927	NaN
49.492786	NaN
50.331650	NaN
51.170509	NaN
52.009369	NaN
52.848232	NaN
53.687092	NaN
55.364811	NaN
57.042534	NaN
58.720257	NaN
60.397976	NaN
62.075699	NaN
63.753422	NaN
65.431145	NaN
67.108864	NaN
68.786583	NaN
70.464310	NaN
72.142029	NaN
73.819748	NaN
75.497475	NaN
77.175194	NaN
78.852913	NaN
80.530640	NaN
82.208359	NaN
83.886078	NaN
85.563805	NaN
87.241524	NaN
88.919243	NaN
90.596970	NaN
92.274689	NaN
93.952408	NaN
95.630135	NaN
97.307854	NaN
98.985573	NaN
100.663300	NaN
102.341019	NaN
104.018738	NaN
105.696465	NaN
107.374184	NaN
110.729622	NaN
114.085068	NaN
117.440514	NaN
120.795952	NaN
124.151398	NaN
127.506844	NaN
130.862289	NaN
134.217728	NaN
137.573166	NaN
140.928619	NaN
144.284058	NaN
147.639496	NaN
150.994949	NaN
154.350388	NaN
157.705826	NaN
161.061279	NaN
164.416718	NaN
167.772156	NaN
171.127609	NaN
174.483047	NaN
177.838486	NaN
181.193939	NaN
184.549377	NaN
187.904816	NaN
191.260269	NaN
194.615707	NaN
197.971146	NaN
201.326599	NaN
204.682037	NaN
208.037476	NaN
211.392929	NaN
214.748367	NaN
221.459244	NaN
228.170135	NaN
234.881027	NaN
241.591904	NaN
248.302795	NaN
255.013687	NaN
261.724579	NaN
268.435455	NaN
275.146332	NaN
281.857239	NaN
288.568115	NaN
295.278992	NaN
301.989899	NaN
308.700775	NaN
315.411652	NaN
322.122559	NaN
328.833435	NaN
335.544312	NaN
342.255219	NaN
348.966095	NaN
355.676971	NaN
362.387878	NaN
369.098755	NaN
375.809631	NaN
382.520538	NaN
389.231415	NaN
395.942291	NaN
402.653198	NaN
409.364075	NaN
416.074951	NaN
422.785858	NaN
429.496735	NaN
442.918488	NaN
456.340271	NaN
469.762054	NaN
483.183807	NaN
496.605591	NaN
510.027374	NaN
523.449158	NaN
536.870911	NaN
550.292664	NaN
563.714478	NaN
577.136230	NaN
590.557983	NaN
603.979797	NaN
617.401550	NaN
630.823303	NaN
644.245117	NaN
657.666870	NaN
671.088623	NaN
684.510437	NaN
697.932190	NaN
711.353943	NaN
724.775757	NaN
738.197510	NaN
751.619263	NaN
765.041077	NaN
778.462830	NaN
791.884583	NaN
805.306396	NaN
818.728149	NaN
832.149902	NaN
845.571716	NaN
858.993469	NaN
885.836975	NaN
912.680542	NaN
939.524109	NaN
966.367615	NaN
993.211182	NaN
1020.054749	NaN
1046.898315	NaN
1073.741821	NaN
1100.585327	NaN
1127.428955	NaN
1154.272461	NaN
1181.115967	NaN
1207.959595	NaN
1234.803101	NaN
1261.646606	NaN
1288.490234	NaN
1315.333740	NaN
1342.177246	NaN
1369.020874	NaN
1395.864380	NaN
1422.707886	NaN
1449.551514	NaN
1476.395020	NaN
1503.238525	NaN
1530.082153	NaN
1556.925659	NaN
1583.769165	NaN
1610.612793	NaN
1637.456299	NaN
1664.299805	NaN
1691.143433	NaN
1717.986938	NaN
1771.673950	NaN
1825.361084	NaN
1879.048218	NaN
1932.735229	NaN
1986.422363	NaN
2040.109497	NaN
2093.796631	NaN
2147.483643	NaN
2201.170654	NaN
2254.857910	NaN
2308.544922	NaN
2362.231934	NaN
2415.919189	NaN
2469.606201	NaN
2523.293213	NaN
2576.980469	NaN
2630.667480	NaN
2684.354492	NaN
2738.041748	NaN
2791.728760	NaN
2845.415771	NaN
2899.103027	NaN
2952.790039	NaN
3006.477051	NaN
3060.164307	NaN
3113.851318	NaN
3167.538330	NaN
3221.225586	NaN
3274.912598	NaN
3328.599609	NaN
3382.286865	NaN
3435.973877	NaN
0.000000	NaN
0.000000	NaN
0.000000	NaN
0.000000	NaN
0.000000	NaN
0.000000	NaN
0.000000	NaN
0.000000	NaN
0.000000	NaN
0.000000	NaN
0.000000	NaN
0.000000	NaN
0.000000	NaN
0.000000	NaN
0.000000	NaN
0.000000	NaN
0.000000	NaN
0.000000	NaN
0.000000	NaN
0.000000	NaN
0.000000	NaN
0.000000	NaN
0.000000	NaN
0.000000	NaN
0.000000	NaN
0.000000	NaN
0.000000	NaN
0.000000	NaN
0.000000	NaN
0.000000	NaN
0.000000	NaN
0.000000	NaN

Count Rate History (KHz)  CR CHA / CR CHB
0.000000	34.437180	31.623840
0.104858	33.569336	29.621124
0.209715	35.457611	33.750534
0.314573	36.058426	33.311844
0.419430	35.982132	31.633377
0.524288	37.374496	34.828186
0.629146	36.573410	32.825470
0.734003	33.550262	30.183792
0.838861	34.284592	29.840469
0.943718	33.273697	31.309128
1.048576	37.069321	33.626556
1.153434	33.349991	31.404495
1.258291	34.065247	31.480789
1.363149	37.393570	33.369064
1.468006	38.480759	38.185120
1.572864	38.175583	35.552979
1.677722	35.934448	33.731461
1.782579	32.663345	30.708313
1.887437	36.869049	35.123825
1.992294	39.815903	36.048889
2.097152	37.584305	34.103394
2.202010	34.313202	31.108856
2.306867	31.719208	29.125214
2.411725	34.818649	32.644272
2.516582	30.460358	29.602051
2.621440	36.354065	34.914017
2.726298	35.924911	34.885406
2.831155	36.849976	34.198761
2.936013	34.418106	31.995773
3.040870	36.144257	33.206940
3.145728	39.052963	35.905838
3.250586	36.621094	35.209656
3.355443	35.772324	31.070709
3.460301	33.407211	30.460358
3.565158	39.758682	36.497116
3.670016	33.063889	30.155182
3.774874	36.172867	32.587051
3.879731	39.129257	36.487579
3.984589	32.377243	29.497147
4.089446	35.076141	31.795502
4.194304	35.552979	32.596588
4.299162	38.032532	36.087036
4.404019	35.638809	33.292770
4.508877	33.721924	31.509399
4.613734	35.448074	32.272339
4.718592	33.111572	32.186508
4.823450	33.016205	30.517578
4.928307	39.787292	35.305023
5.033165	33.063889	28.839111
5.138022	32.663345	29.935837
5.242880	33.349991	31.099319
5.347738	33.941269	30.565262
5.452595	34.914017	32.815933
5.557453	34.971237	30.908585
5.662310	42.533875	41.427612
5.767168	35.591125	31.824112
5.872026	37.364960	35.924911
5.976883	35.839081	33.264160
6.081741	38.366318	35.686493
6.186598	33.359528	30.460358
6.291456	36.373138	34.265518
6.396314	32.978058	30.574799
6.501171	34.599304	31.633377
6.606029	32.367706	29.230118
6.710886	40.082932	35.448074
6.815744	34.484863	32.157898
6.920602	35.228729	31.423569
7.025459	34.112930	31.261444
7.130317	36.973953	34.084320
7.235174	34.704208	30.231476
7.340032	32.415390	28.877258
7.444890	35.629272	32.987595
7.549747	36.134720	33.178329
7.654605	36.439896	34.322739
7.759462	35.743713	33.016205
7.864320	33.664703	31.747818
7.969178	35.867691	33.321381
8.074035	33.292770	30.441284
8.178893	33.655167	31.366348
8.283750	39.310455	37.555695
8.388608	54.998398	53.358078
8.493466	46.653748	43.992996
8.598323	40.769577	37.298203
8.703181	35.619736	34.122467
8.808038	35.896301	33.254623
8.912896	37.250519	33.731461
9.017754	32.062531	29.201508
9.122611	32.615662	29.907227
9.227469	40.988922	40.025711
9.332326	34.723282	31.461716
9.437184	36.582947	35.037994
9.542042	34.265518	31.852722
9.646899	35.972595	32.491684
9.751757	36.954880	34.561157
9.856614	32.968521	30.355453
9.961472	36.582947	34.742355
10.066330	34.112930	31.528473
10.171187	41.227341	39.768219
10.276045	37.107468	36.153793
10.380902	41.770935	36.973953
10.485760	38.003922	35.190582
10.590618	38.099289	35.533905
10.695475	34.894943	32.510757
10.800333	38.480759	34.742355
10.905190	34.761429	32.787323
11.010048	36.249161	32.825470
11.114906	42.133331	38.642883
11.219763	37.336349	34.656525
11.324621	38.003922	35.772324
11.429478	35.610199	34.790039
11.534336	114.755630	118.122101
11.639194	158.414841	171.518326
11.744051	139.532089	142.574310
11.848909	108.776093	107.975006
11.953766	53.739548	52.156448
12.058624	32.367706	29.554367
12.163482	35.858154	33.025742
12.268339	38.394928	35.886765
12.373197	36.306381	35.095215
12.478054	38.146973	33.769608
12.582912	36.687851	33.998489
12.687770	33.302307	30.946732
12.792627	39.167404	36.668777
12.897485	44.660568	44.813156
13.002342	47.740936	42.161942
13.107200	40.168762	36.706924
13.212058	37.412643	33.140182
13.316915	37.069321	34.942627
13.421773	32.444000	28.209686
13.526630	39.873123	38.490295
13.631488	41.217804	37.841797
13.736346	32.844543	30.241013
13.841203	39.710999	36.449432
13.946061	30.536652	26.493073
14.050918	35.753250	32.796860
14.155776	35.076141	32.234192
14.260634	35.228729	31.147003
14.365491	38.728714	37.717819
14.470349	43.334961	41.341782
14.575206	35.095215	31.127930
14.680064	35.581589	32.796860
14.784922	36.783218	33.035278
14.889779	37.727356	36.592484
14.994637	40.607452	39.091110
15.099494	39.911270	37.660599
15.204352	36.935806	33.454895
15.309210	35.018921	32.062531
15.414067	38.185120	36.239624
15.518925	39.529800	34.370422
15.623782	37.889481	35.161972
15.728640	35.514832	32.148361
15.833498	31.223297	31.414032
15.938355	36.993027	33.416748
16.043213	33.693314	30.355453
16.148070	34.914017	32.835007
16.252928	37.221909	34.618378
16.357786	36.468506	33.349991
16.462643	35.409927	32.901764
16.567501	36.573410	33.187866
16.672358	39.815903	36.735535
16.777216	32.472610	30.364990
16.882074	38.003922	35.514832
16.986931	34.856796	32.196045
17.091789	33.693314	29.535294
17.196646	33.884048	30.136108
17.301504	36.554337	34.027100
17.406362	35.810471	33.254623
17.511219	35.018921	31.957626
17.616077	35.886765	31.957626
17.720934	40.197372	38.156509
17.825792	38.671494	34.523010
17.930650	39.329529	36.516190
18.035507	48.103333	47.025681
18.140365	45.766830	43.334961
18.245222	39.062500	36.764145
18.350080	35.543442	34.465790
18.454938	34.780502	32.901764
18.559795	38.738251	35.982132
18.664653	34.170151	31.414032
18.769510	38.576126	36.935806
18.874368	34.713745	32.796860
18.979226	34.799576	31.929016
19.084083	36.287308	33.788681
19.188941	36.344528	32.739639
19.293798	38.223267	36.506653
19.398656	34.418106	31.385422
19.503514	33.445358	31.185150
19.608371	59.919357	60.949326
19.713229	69.084167	68.206787
