1/9/2026	12:15 PM
Pseudo Cross Correlation
Scattering angle:	130.0
Duration (s):	20
Wavelength (nm):	632.8
Refractive index:	1.330
Viscosity (mPas):	0.741
Temperature (K):	306.7
Laser intensity (mW):	8.523750
Average Count rate  A (kHz):	315.9
Average Count rate  B (kHz):	331.5
Intercept:	0.9085
Cumulant 1st	76.48
Cumulant 2nd	74.83	12.03
Cumulant 3rd	74.54	14.44

Lag time (s)         g2-1
1.250000E-8	0.919666
2.500000E-8	0.905092
3.750000E-8	0.921161
5.000000E-8	0.908889
6.250000E-8	0.901525
7.500000E-8	0.894699
8.750000E-8	0.905322
1.000000E-7	0.901448
1.125000E-7	0.907700
1.250000E-7	0.916712
1.375000E-7	0.905169
1.500000E-7	0.911957
1.625000E-7	0.910193
1.750000E-7	0.907968
1.875000E-7	0.900259
2.000000E-7	0.910960
2.125000E-7	0.902100
2.250000E-7	0.909847
2.375000E-7	0.908850
2.500000E-7	0.916904
2.625000E-7	0.907393
2.750000E-7	0.904632
2.875000E-7	0.907546
3.000000E-7	0.894737
3.125000E-7	0.904747
3.250000E-7	0.911535
3.375000E-7	0.910423
3.500000E-7	0.897613
3.625000E-7	0.930749
3.750000E-7	0.896731
3.875000E-7	0.904632
4.000000E-7	0.909157
4.125000E-7	0.900988
4.250000E-7	0.910001
4.375000E-7	0.916597
4.500000E-7	0.907086
4.625000E-7	0.909502
4.750000E-7	0.898035
4.875000E-7	0.918016
5.000000E-7	0.916521
5.125000E-7	0.899186
5.250000E-7	0.905130
5.375000E-7	0.898419
5.500000E-7	0.891285
5.625000E-7	0.906933
5.750000E-7	0.919090
5.875000E-7	0.921353
6.000000E-7	0.909847
6.125000E-7	0.903251
6.250000E-7	0.889598
6.375000E-7	0.906166
6.500000E-7	0.896309
6.625000E-7	0.906588
6.750000E-7	0.889176
6.875000E-7	0.898342
7.000000E-7	0.904478
7.125000E-7	0.905169
7.250000E-7	0.923577
7.375000E-7	0.921622
7.500000E-7	0.897958
7.625000E-7	0.903941
7.750000E-7	0.899186
7.875000E-7	0.907278
8.000000E-7	0.893740
8.250000E-7	0.911209
8.500000E-7	0.911516
8.750000E-7	0.905878
9.000000E-7	0.902005
9.250000E-7	0.910097
9.500000E-7	0.904152
9.750000E-7	0.903826
1.000000E-6	0.909694
1.025000E-6	0.899243
1.050000E-6	0.910806
1.075000E-6	0.901487
1.100000E-6	0.898304
1.125000E-6	0.893567
1.150000E-6	0.912264
1.175000E-6	0.908505
1.200000E-6	0.903750
1.225000E-6	0.903654
1.250000E-6	0.903692
1.275000E-6	0.900183
1.300000E-6	0.904574
1.325000E-6	0.901717
1.350000E-6	0.909522
1.375000E-6	0.900950
1.400000E-6	0.898764
1.425000E-6	0.896923
1.450000E-6	0.913338
1.475000E-6	0.895638
1.500000E-6	0.904076
1.525000E-6	0.905188
1.550000E-6	0.907316
1.575000E-6	0.890556
1.600000E-6	0.910672
1.650000E-6	0.899636
1.700000E-6	0.902129
1.750000E-6	0.899099
1.800000E-6	0.896913
1.850000E-6	0.903088
1.900000E-6	0.898620
1.950000E-6	0.894909
2.000000E-6	0.897508
2.050000E-6	0.896137
2.100000E-6	0.901065
2.150000E-6	0.894766
2.200000E-6	0.904334
2.250000E-6	0.905811
2.300000E-6	0.903721
2.350000E-6	0.897124
2.400000E-6	0.896386
2.450000E-6	0.905159
2.500000E-6	0.894909
2.550000E-6	0.896050
2.600000E-6	0.909464
2.650000E-6	0.894066
2.700000E-6	0.890537
2.750000E-6	0.901717
2.800000E-6	0.887843
2.850000E-6	0.893222
2.900000E-6	0.897853
2.950000E-6	0.889876
3.000000E-6	0.899099
3.050000E-6	0.892781
3.100000E-6	0.898869
3.150000E-6	0.893097
3.200000E-6	0.889933
3.300000E-6	0.892723
3.400000E-6	0.891539
3.500000E-6	0.895053
3.600000E-6	0.899425
3.700000E-6	0.892455
3.800000E-6	0.894569
3.900000E-6	0.892882
4.000000E-6	0.891213
4.100000E-6	0.890700
4.200000E-6	0.892095
4.300000E-6	0.892258
4.400000E-6	0.896803
4.500000E-6	0.893457
4.600000E-6	0.887527
4.700000E-6	0.890451
4.800000E-6	0.893332
4.900000E-6	0.888816
5.000000E-6	0.886184
5.100000E-6	0.887373
5.200000E-6	0.883970
5.300000E-6	0.887028
5.400000E-6	0.888073
5.500000E-6	0.886927
5.600000E-6	0.885000
5.700000E-6	0.882421
5.800000E-6	0.885858
5.900000E-6	0.882886
6.000000E-6	0.881558
6.100000E-6	0.883922
6.200000E-6	0.884224
6.300000E-6	0.881659
6.400000E-6	0.883754
6.600000E-6	0.878346
6.800000E-6	0.876920
7.000000E-6	0.877939
7.200000E-6	0.882169
7.400000E-6	0.877073
7.600000E-6	0.878358
7.800000E-6	0.878025
8.000000E-6	0.876491
8.200000E-6	0.876769
8.400000E-6	0.872759
8.600000E-6	0.871812
8.800000E-6	0.869820
9.000000E-6	0.872550
9.200000E-6	0.873183
9.400000E-6	0.870705
9.600000E-6	0.871776
9.800000E-6	0.870899
1.000000E-5	0.864681
1.020000E-5	0.866078
1.040000E-5	0.864597
1.060000E-5	0.866656
1.080000E-5	0.865307
1.100000E-5	0.862874
1.120000E-5	0.863295
1.140000E-5	0.861014
1.160000E-5	0.860925
1.180000E-5	0.859885
1.200000E-5	0.861258
1.220000E-5	0.858636
1.240000E-5	0.856546
1.260000E-5	0.856907
1.280000E-5	0.852188
1.320000E-5	0.856206
1.360000E-5	0.853270
1.400000E-5	0.852736
1.440000E-5	0.850379
1.480000E-5	0.849097
1.520000E-5	0.847743
1.560000E-5	0.845468
1.600000E-5	0.844012
1.640000E-5	0.842385
1.680000E-5	0.840644
1.720000E-5	0.836861
1.760000E-5	0.839260
1.800000E-5	0.836281
1.840000E-5	0.834107
1.880000E-5	0.837222
1.920000E-5	0.832204
1.960000E-5	0.826745
2.000000E-5	0.825930
2.040000E-5	0.829799
2.080000E-5	0.824740
2.120000E-5	0.822054
2.160000E-5	0.824725
2.200000E-5	0.820484
2.240000E-5	0.817705
2.280000E-5	0.814768
2.320000E-5	0.815937
2.360000E-5	0.814468
2.400000E-5	0.812346
2.440000E-5	0.810262
2.480000E-5	0.806448
2.520000E-5	0.807256
2.560000E-5	0.803964
2.640000E-5	0.803814
2.720000E-5	0.800711
2.800000E-5	0.797868
2.880000E-5	0.795737
2.960000E-5	0.793200
3.040000E-5	0.787328
3.120000E-5	0.784980
3.200000E-5	0.782108
3.280000E-5	0.780645
3.360000E-5	0.777116
3.440000E-5	0.774719
3.520000E-5	0.771384
3.600000E-5	0.768896
3.680000E-5	0.765945
3.760000E-5	0.763750
3.840000E-5	0.761007
3.920000E-5	0.757235
4.000000E-5	0.753249
4.080000E-5	0.748502
4.160000E-5	0.748432
4.240000E-5	0.745893
4.320000E-5	0.743191
4.400000E-5	0.738576
4.480000E-5	0.737836
4.560000E-5	0.734545
4.640000E-5	0.732317
4.720000E-5	0.728380
4.800000E-5	0.726280
4.880000E-5	0.723857
4.960000E-5	0.721716
5.040000E-5	0.718135
5.120000E-5	0.715582
5.280000E-5	0.710558
5.440000E-5	0.704557
5.600000E-5	0.699939
5.760000E-5	0.694620
5.920000E-5	0.690895
6.080000E-5	0.684920
6.240000E-5	0.681135
6.400000E-5	0.675539
6.560000E-5	0.670556
6.720000E-5	0.665698
6.880000E-5	0.660835
7.040000E-5	0.657273
7.200000E-5	0.649709
7.360000E-5	0.646742
7.520000E-5	0.641683
7.680000E-5	0.636014
7.840000E-5	0.631128
8.000000E-5	0.627377
8.160000E-5	0.622932
8.320000E-5	0.619053
8.480000E-5	0.614734
8.640000E-5	0.609109
8.800000E-5	0.605147
8.960000E-5	0.600681
9.120000E-5	0.595477
9.280000E-5	0.591871
9.440000E-5	0.587338
9.600000E-5	0.582376
9.760000E-5	0.578416
9.920000E-5	0.575262
0.000101	0.570650
0.000102	0.566332
0.000106	0.558153
0.000109	0.549385
0.000112	0.542134
0.000115	0.534152
0.000118	0.526684
0.000122	0.517507
0.000125	0.510748
0.000128	0.503491
0.000131	0.496539
0.000134	0.489037
0.000138	0.482084
0.000141	0.475150
0.000144	0.467827
0.000147	0.461090
0.000150	0.454680
0.000154	0.447948
0.000157	0.441281
0.000160	0.435137
0.000163	0.429090
0.000166	0.421887
0.000170	0.416115
0.000173	0.409980
0.000176	0.405349
0.000179	0.398690
0.000182	0.392601
0.000186	0.387358
0.000189	0.382243
0.000192	0.377299
0.000195	0.371297
0.000198	0.365755
0.000202	0.360463
0.000205	0.355136
0.000211	0.345584
0.000218	0.335105
0.000224	0.325210
0.000230	0.316305
0.000237	0.306991
0.000243	0.298372
0.000250	0.289431
0.000256	0.280725
0.000262	0.273754
0.000269	0.265305
0.000275	0.258940
0.000282	0.251351
0.000288	0.243657
0.000294	0.236813
0.000301	0.229969
0.000307	0.223223
0.000314	0.217284
0.000320	0.211198
0.000326	0.204603
0.000333	0.199521
0.000339	0.193942
0.000346	0.188758
0.000352	0.183630
0.000358	0.178851
0.000365	0.173611
0.000371	0.168673
0.000378	0.164613
0.000384	0.159541
0.000390	0.155320
0.000397	0.150161
0.000403	0.146570
0.000410	0.142371
0.000422	0.133881
0.000435	0.126697
0.000448	0.119908
0.000461	0.113343
0.000474	0.107120
0.000486	0.100854
0.000499	0.095211
0.000512	0.090338
0.000525	0.085717
0.000538	0.080921
0.000550	0.076956
0.000563	0.072540
0.000576	0.068078
0.000589	0.064488
0.000602	0.060869
0.000614	0.058088
0.000627	0.055212
0.000640	0.052625
0.000653	0.050310
0.000666	0.047932
0.000678	0.045173
0.000691	0.043089
0.000704	0.040776
0.000717	0.037714
0.000730	0.035863
0.000742	0.034116
0.000755	0.031896
0.000768	0.030763
0.000781	0.029062
0.000794	0.028459
0.000806	0.027334
0.000819	0.025972
0.000845	0.023561
0.000870	0.021519
0.000896	0.019435
0.000922	0.017397
0.000947	0.015856
0.000973	0.014187
0.000998	0.012011
0.001024	0.011107
0.001050	0.009360
0.001075	0.008356
0.001101	0.008115
0.001126	0.007810
0.001152	0.007258
0.001178	0.006786
0.001203	0.006561
0.001229	0.006168
0.001254	0.005440
0.001280	0.005289
0.001306	0.004951
0.001331	0.004567
0.001357	0.004653
0.001382	0.004664
0.001408	0.003719
0.001434	0.003041
0.001459	0.002346
0.001485	0.001971
0.001510	0.001478
0.001536	0.001397
0.001562	0.000789
0.001587	0.000568
0.001613	0.000190
0.001638	-0.000914
0.001690	-0.001959
0.001741	-0.002893
0.001792	-0.003552
0.001843	-0.004409
0.001894	-0.004963
0.001946	-0.005329
0.001997	-0.005354
0.002048	-0.005721
0.002099	-0.005615
0.002150	-0.005323
0.002202	-0.005019
0.002253	-0.005290
0.002304	-0.005359
0.002355	-0.007072
0.002406	-0.007304
0.002458	-0.006226
0.002509	-0.005968
0.002560	-0.005786
0.002611	-0.005826
0.002662	-0.005197
0.002714	-0.004479
0.002765	-0.003264
0.002816	-0.002075
0.002867	-0.001372
0.002918	-0.001302
0.002970	-0.001120
0.003021	-0.000675
0.003072	0.000551
0.003123	0.001685
0.003174	0.001495
0.003226	0.001066
0.003277	0.000360
0.003379	-0.000633
0.003482	0.002201
0.003584	0.003524
0.003686	0.003819
0.003789	0.004667
0.003891	0.004087
0.003994	0.004461
0.004096	0.005516
0.004198	0.006728
0.004301	0.006027
0.004403	0.003389
0.004506	0.002822
0.004608	0.003351
0.004710	0.003337
0.004813	0.002586
0.004915	0.002475
0.005018	0.002497
0.005120	0.003073
0.005222	0.003553
0.005325	0.003049
0.005427	0.001719
0.005530	1.327342E-5
0.005632	-0.000436
0.005734	-0.001544
0.005837	-0.003950
0.005939	-0.004213
0.006042	-0.003903
0.006144	-0.004452
0.006246	-0.004630
0.006349	-0.003852
0.006451	-0.002097
0.006554	0.000697
0.006758	0.000790
0.006963	-0.000585
0.007168	-0.001085
0.007373	-0.003207
0.007578	-0.007812
0.007782	-0.006223
0.007987	-0.005466
0.008192	-0.005385
0.008397	-0.002345
0.008602	-0.001141
0.008806	-0.001151
0.009011	-0.002369
0.009216	-0.002549
0.009421	-0.003651
0.009626	-0.002276
0.009830	0.000583
0.010035	0.001456
0.010240	-8.677228E-5
0.010445	-0.004377
0.010650	-0.007694
0.010854	-0.007176
0.011059	-0.002835
0.011264	0.003262
0.011469	0.004028
0.011674	0.003002
0.011878	0.000225
0.012083	-0.003483
0.012288	-0.004482
0.012493	-0.007427
0.012698	-0.007187
0.012902	-0.004368
0.013107	-0.001304
0.013517	0.002603
0.013926	0.000989
0.014336	-0.001384
0.014746	-0.002615
0.015155	-0.001953
0.015565	0.000829
0.015974	0.002501
0.016384	0.004691
0.016794	0.008402
0.017203	0.003300
0.017613	-0.001784
0.018022	-0.002423
0.018432	-0.002546
0.018842	-0.001310
0.019251	-0.001048
0.019661	0.001354
0.020070	0.007684
0.020480	0.005307
0.020890	0.002906
0.021299	-0.002318
0.021709	-0.001269
0.022118	0.002184
0.022528	0.002038
0.022938	-0.003662
0.023347	-0.005346
0.023757	0.003505
0.024166	-0.000850
0.024576	-0.001734
0.024986	0.000147
0.025395	0.001410
0.025805	-0.002439
0.026214	-0.002481
0.027034	0.002338
0.027853	-0.002935
0.028672	-0.002645
0.029491	-0.004072
0.030310	0.000692
0.031130	0.001536
0.031949	-0.002020
0.032768	0.004661
0.033587	0.001948
0.034406	-0.003681
0.035226	-0.004196
0.036045	-0.000448
0.036864	0.000657
0.037683	0.002572
0.038502	0.002503
0.039322	3.875050E-5
0.040141	-9.834401E-5
0.040960	-0.003397
0.041779	0.000124
0.042598	-0.001869
0.043418	0.001993
0.044237	-0.001095
0.045056	-0.000832
0.045875	9.902316E-5
0.046694	-0.001612
0.047514	-0.000285
0.048333	0.003234
0.049152	0.003685
0.049971	0.002647
0.050790	-0.003301
0.051610	0.000707
0.052429	0.003487
0.054067	-0.001647
0.055706	-0.001379
0.057344	-0.000909
0.058982	-0.000758
0.060621	0.001909
0.062259	-0.003842
0.063898	-0.002528
0.065536	-0.004475
0.067174	-5.679690E-5
0.068813	0.000374
0.070451	-0.003300
0.072090	-0.001901
0.073728	0.000254
0.075366	-0.001300
0.077005	-0.001580
0.078643	-1.583454E-5
0.080282	0.002886
0.081920	0.001145
0.083558	0.002840
0.085197	0.001621
0.086835	-9.184881E-5
0.088474	0.000197
0.090112	-0.000749
0.091750	0.000228
0.093389	-0.002811
0.095027	0.000154
0.096666	0.000777
0.098304	0.001326
0.099942	0.004685
0.101581	0.002522
0.103219	-0.001007
0.104858	-0.002079
0.108134	-0.000355
0.111411	0.000129
0.114688	0.001006
0.117965	-0.000479
0.121242	3.405631E-5
0.124518	-0.002633
0.127795	-0.000265
0.131072	0.000770
0.134349	0.001548
0.137626	0.001258
0.140902	0.000631
0.144179	1.933611E-5
0.147456	0.003311
0.150733	0.001636
0.154010	-0.002900
0.157286	-0.001327
0.160563	-0.002591
0.163840	-0.001253
0.167117	0.000898
0.170394	-0.001618
0.173670	-0.001989
0.176947	-3.654405E-5
0.180224	0.000579
0.183501	8.094731E-5
0.186778	-0.001429
0.190054	-0.001106
0.193331	-0.000201
0.196608	-0.000274
0.199885	0.001772
0.203162	0.002804
0.206438	-0.001089
0.209715	-0.000346
0.216269	0.000466
0.222822	0.000586
0.229376	0.000197
0.235930	0.001324
0.242483	0.000788
0.249037	-0.000612
0.255590	-0.000391
0.262144	-0.000371
0.268698	-0.001483
0.275251	0.000291
0.281805	-0.001070
0.288358	0.001774
0.294912	-0.000612
0.301466	5.760060E-5
0.308019	0.001498
0.314573	-0.000579
0.321126	-0.000618
0.327680	0.000706
0.334234	-0.000414
0.340787	0.001273
0.347341	0.002113
0.353894	-0.000679
0.360448	-0.000246
0.367002	-0.000716
0.373555	0.000858
0.380109	-0.000525
0.386662	0.001463
0.393216	-0.001244
0.399770	0.000631
0.406323	-0.000449
0.412877	0.000527
0.419430	-0.000880
0.432538	-0.000120
0.445645	3.194802E-5
0.458752	-4.468620E-5
0.471859	-0.000208
0.484966	0.000895
0.498074	0.000631
0.511181	0.000591
0.524288	0.000150
0.537395	5.776661E-5
0.550502	-0.000108
0.563610	0.001473
0.576717	0.000441
0.589824	-0.001783
0.602931	-0.000233
0.616038	-0.000241
0.629146	-0.000103
0.642253	0.000188
0.655360	8.213869E-5
0.668467	-0.000572
0.681574	-0.000311
0.694682	0.000815
0.707789	-0.001506
0.720896	-0.000988
0.734003	4.447958E-5
0.747110	-0.000368
0.760218	0.000399
0.773325	0.000138
0.786432	-0.000765
0.799539	0.001505
0.812646	-0.000468
0.825754	-0.001068
0.838861	-0.000111
0.865075	-0.000793
0.891290	0.000126
0.917504	0.000199
0.943718	-0.000114
0.969933	-0.000311
0.996147	-0.001227
1.022362	-7.974754E-5
1.048576	-0.000447
1.074790	0.000484
1.101005	-0.000336
1.127219	-0.000320
1.153434	-0.000540
1.179648	-0.000363
1.205862	-0.000508
1.232077	-6.138648E-5
1.258291	3.449142E-5
1.284506	0.000560
1.310720	-0.000780
1.336934	-0.000707
1.363149	-0.000494
1.389363	-0.000268
1.415578	-0.000159
1.441792	0.000540
1.468006	0.000380
1.494221	-0.000276
1.520435	-0.000757
1.546650	9.583838E-5
1.572864	-0.000439
1.599078	0.000459
1.625293	0.000139
1.651507	0.000783
1.677722	0.000422
1.730150	-0.000337
1.782579	0.000374
1.835008	-0.000932
1.887437	0.000702
1.939866	-0.000843
1.992294	0.000546
2.044723	-0.000480
2.097152	-0.000353
2.149581	-0.000186
2.202010	0.000859
2.254438	0.000123
2.306867	0.000428
2.359296	-5.297420E-5
2.411725	-3.201645E-5
2.464154	-2.479376E-5
2.516582	-1.678250E-5
2.569011	-9.140305E-5
2.621440	-0.000429
2.673869	0.000545
2.726298	-0.000130
2.778726	-0.000189
2.831155	0.000259
2.883584	0.000381
2.936013	-0.000239
2.988442	0.000529
3.040870	0.000224
3.093299	-0.000398
3.145728	0.000563
3.198157	-0.001031
3.250586	0.000685
3.303015	-0.000128
3.355443	-0.000165
3.460301	-0.000195
3.565158	-4.760344E-5
3.670016	-0.000258
3.774873	-0.000237
3.879731	-0.000343
3.984589	-0.000219
4.089447	-0.000331
4.194304	-7.705584E-5
4.299161	0.000258
4.404019	-0.000103
4.508877	0.000417
4.613734	0.000413
4.718592	0.000241
4.823450	0.000206
4.928307	0.000342
5.033165	4.726485E-5
5.138022	0.000432
5.242880	0.000163
5.347738	-0.000249
5.452595	0.000210
5.557453	6.444731E-6
5.662311	-0.000250
5.767168	-0.000193
5.872025	-0.000248
5.976883	0.000222
6.081741	-0.000162
6.186598	-0.000569
6.291456	0.000111
6.396314	-0.000199
6.501171	0.000210
6.606029	3.331519E-5
6.710886	0.000104
6.920601	0.000172
7.130317	0.000195
7.340032	9.426051E-6
7.549747	0.000150
7.759462	5.752145E-5
7.969178	-0.000228
8.178893	5.674766E-5
8.388608	-0.000177
8.598323	-0.000425
8.808039	3.251920E-5
9.017754	0.000101
9.227468	-0.000237
9.437184	0.000334
9.646899	0.000386
9.856614	3.794209E-5
10.066330	4.319921E-6
10.276045	-0.000135
10.485760	-0.000114
10.695476	1.834272E-5
10.905190	-0.000306
11.114905	0.000331
11.324621	0.000201
11.534336	-1.180300E-6
11.744051	0.000360
11.953767	0.000379
12.163482	-0.000219
12.373197	-0.000268
12.582912	-7.342255E-5
12.792627	-0.000252
13.002342	0.000138
13.212058	6.952984E-5
13.421773	-0.000201
13.841203	-0.000331
14.260633	0.000222
14.680064	0.000420
15.099494	-0.000591
15.518925	-0.000692
15.938355	0.000471
16.357786	0.001085
16.777216	0.000192
17.196646	-0.000225
17.616077	0.000372
18.035507	-0.000110
18.454937	-0.000316
18.874369	0.000180
19.293798	0.000000
19.713228	NaN
20.132660	NaN
20.552090	NaN
20.971519	NaN
21.390951	NaN
21.810381	NaN
22.229811	NaN
22.649242	NaN
23.068672	NaN
23.488102	NaN
23.907534	NaN
24.326963	NaN
24.746393	NaN
25.165825	NaN
25.585255	NaN
26.004684	NaN
26.424116	NaN
26.843546	NaN
27.682405	NaN
28.521267	NaN
29.360128	NaN
30.198988	NaN
31.037849	NaN
31.876711	NaN
32.715572	NaN
33.554432	NaN
34.393291	NaN
35.232155	NaN
36.071014	NaN
36.909874	NaN
37.748737	NaN
38.587597	NaN
39.426456	NaN
40.265320	NaN
41.104179	NaN
41.943039	NaN
42.781902	NaN
43.620762	NaN
44.459621	NaN
45.298485	NaN
46.137344	NaN
46.976204	NaN
47.815067	NaN
48.653927	NaN
49.492786	NaN
50.331650	NaN
51.170509	NaN
52.009369	NaN
52.848232	NaN
53.687092	NaN
55.364811	NaN
57.042534	NaN
58.720257	NaN
60.397976	NaN
62.075699	NaN
63.753422	NaN
65.431145	NaN
67.108864	NaN
68.786583	NaN
70.464310	NaN
72.142029	NaN
73.819748	NaN
75.497475	NaN
77.175194	NaN
78.852913	NaN
80.530640	NaN
82.208359	NaN
83.886078	NaN
85.563805	NaN
87.241524	NaN
88.919243	NaN
90.596970	NaN
92.274689	NaN
93.952408	NaN
95.630135	NaN
97.307854	NaN
98.985573	NaN
100.663300	NaN
102.341019	NaN
104.018738	NaN
105.696465	NaN
107.374184	NaN
110.729622	NaN
114.085068	NaN
117.440514	NaN
120.795952	NaN
124.151398	NaN
127.506844	NaN
130.862289	NaN
134.217728	NaN
137.573166	NaN
140.928619	NaN
144.284058	NaN
147.639496	NaN
150.994949	NaN
154.350388	NaN
157.705826	NaN
161.061279	NaN
164.416718	NaN
167.772156	NaN
171.127609	NaN
174.483047	NaN
177.838486	NaN
181.193939	NaN
184.549377	NaN
187.904816	NaN
191.260269	NaN
194.615707	NaN
197.971146	NaN
201.326599	NaN
204.682037	NaN
208.037476	NaN
211.392929	NaN
214.748367	NaN
221.459244	NaN
228.170135	NaN
234.881027	NaN
241.591904	NaN
248.302795	NaN
255.013687	NaN
261.724579	NaN
268.435455	NaN
275.146332	NaN
281.857239	NaN
288.568115	NaN
295.278992	NaN
301.989899	NaN
308.700775	NaN
315.411652	NaN
322.122559	NaN
328.833435	NaN
335.544312	NaN
342.255219	NaN
348.966095	NaN
355.676971	NaN
362.387878	NaN
369.098755	NaN
375.809631	NaN
382.520538	NaN
389.231415	NaN
395.942291	NaN
402.653198	NaN
409.364075	NaN
416.074951	NaN
422.785858	NaN
429.496735	NaN
442.918488	NaN
456.340271	NaN
469.762054	NaN
483.183807	NaN
496.605591	NaN
510.027374	NaN
523.449158	NaN
536.870911	NaN
550.292664	NaN
563.714478	NaN
577.136230	NaN
590.557983	NaN
603.979797	NaN
617.401550	NaN
630.823303	NaN
644.245117	NaN
657.666870	NaN
671.088623	NaN
684.510437	NaN
697.932190	NaN
711.353943	NaN
724.775757	NaN
738.197510	NaN
751.619263	NaN
765.041077	NaN
778.462830	NaN
791.884583	NaN
805.306396	NaN
818.728149	NaN
832.149902	NaN
845.571716	NaN
858.993469	NaN
885.836975	NaN
912.680542	NaN
939.524109	NaN
966.367615	NaN
993.211182	NaN
1020.054749	NaN
1046.898315	NaN
1073.741821	NaN
1100.585327	NaN
1127.428955	NaN
1154.272461	NaN
1181.115967	NaN
1207.959595	NaN
1234.803101	NaN
1261.646606	NaN
1288.490234	NaN
1315.333740	NaN
1342.177246	NaN
1369.020874	NaN
1395.864380	NaN
1422.707886	NaN
1449.551514	NaN
1476.395020	NaN
1503.238525	NaN
1530.082153	NaN
1556.925659	NaN
1583.769165	NaN
1610.612793	NaN
1637.456299	NaN
1664.299805	NaN
1691.143433	NaN
1717.986938	NaN
1771.673950	NaN
1825.361084	NaN
1879.048218	NaN
1932.735229	NaN
1986.422363	NaN
2040.109497	NaN
2093.796631	NaN
2147.483643	NaN
2201.170654	NaN
2254.857910	NaN
2308.544922	NaN
2362.231934	NaN
2415.919189	NaN
2469.606201	NaN
2523.293213	NaN
2576.980469	NaN
2630.667480	NaN
2684.354492	NaN
2738.041748	NaN
2791.728760	NaN
2845.415771	NaN
2899.103027	NaN
2952.790039	NaN
3006.477051	NaN
3060.164307	NaN
3113.851318	NaN
3167.538330	NaN
3221.225586	NaN
3274.912598	NaN
3328.599609	NaN
3382.286865	NaN
3435.973877	NaN
0.000000	NaN
0.000000	NaN
0.000000	NaN
0.000000	NaN
0.000000	NaN
0.000000	NaN
0.000000	NaN
0.000000	NaN
0.000000	NaN
0.000000	NaN
0.000000	NaN
0.000000	NaN
0.000000	NaN
0.000000	NaN
0.000000	NaN
0.000000	NaN
0.000000	NaN
0.000000	NaN
0.000000	NaN
0.000000	NaN
0.000000	NaN
0.000000	NaN
0.000000	NaN
0.000000	NaN
0.000000	NaN
0.000000	NaN
0.000000	NaN
0.000000	NaN
0.000000	NaN
0.000000	NaN
0.000000	NaN
0.000000	NaN

Count Rate History (KHz)  CR CHA / CR CHB
0.000000	305.938721	323.085785
0.104858	334.510803	353.889465
0.209715	317.020416	325.803757
0.314573	302.028656	325.231552
0.419430	286.331177	291.910172
0.524288	328.531265	352.792740
0.629146	325.613022	337.572098
0.734003	288.724899	303.697586
0.838861	285.282135	299.005508
0.943718	280.923843	296.230316
1.048576	309.457779	325.765610
1.153434	294.551849	310.430527
1.258291	279.054642	290.842056
1.363149	314.607620	343.484879
1.468006	372.419357	385.780334
1.572864	318.698883	336.465836
1.677722	336.160660	357.265472
1.782579	326.986313	345.163345
1.887437	348.243713	359.115601
1.992294	308.265686	334.644318
2.097152	307.798386	307.540894
2.202010	305.318832	322.427750
2.306867	325.126648	343.694687
2.411725	342.712402	358.848572
2.516582	301.752090	315.809250
2.621440	294.065475	306.453705
2.726298	289.573669	307.569504
2.831155	352.764130	367.126465
2.936013	329.971313	351.991653
3.040870	316.009521	335.836411
3.145728	316.019058	331.907272
3.250586	321.846008	338.602066
3.355443	334.949493	346.870422
3.460301	323.171616	337.877274
3.565158	304.508209	323.657990
3.670016	310.964584	331.039429
3.774874	293.741226	299.196243
3.879731	318.098068	332.584381
3.984589	322.942734	349.140167
4.089446	317.134857	335.369110
4.194304	295.372009	302.715302
4.299162	321.788788	343.284607
4.404019	332.727432	343.875885
4.508877	289.402008	297.851562
4.613734	304.088593	325.670242
4.718592	323.858261	339.851379
4.823450	310.907364	326.204300
4.928307	324.802399	333.356857
5.033165	291.767120	311.107635
5.138022	328.235626	342.750549
5.242880	304.288864	329.675674
5.347738	304.574966	325.002670
5.452595	310.392380	311.603546
5.557453	298.290253	310.039520
5.662310	316.505432	329.599380
5.767168	313.920975	331.535339
5.872026	305.824280	328.187943
5.976883	330.085754	347.251892
6.081741	301.246643	303.897858
6.186598	342.693329	367.679596
6.291456	329.523087	352.649689
6.396314	320.186615	332.794189
6.501171	330.858231	346.107483
6.606029	342.340469	353.670120
6.710886	274.219513	284.461975
6.815744	321.397781	334.014893
6.920602	329.351425	358.505249
7.025459	300.712585	308.208466
7.130317	332.193375	347.061157
7.235174	308.837891	332.279205
7.340032	302.848816	320.215225
7.444890	315.580368	327.730179
7.549747	309.925079	330.438614
7.654605	298.252106	304.174423
7.759462	307.588577	313.730240
7.864320	314.855576	335.302353
7.969178	334.644318	352.993011
8.074035	311.260223	323.429108
8.178893	315.399170	333.938599
8.283750	305.995941	319.557190
8.388608	340.795517	349.168777
8.493466	318.393707	339.841843
8.598323	329.599380	341.682434
8.703181	316.734314	331.220627
8.808038	331.411362	348.701477
8.912896	297.441483	316.562653
9.017754	322.217941	341.148376
9.122611	299.272537	323.419571
9.227469	336.732864	356.912613
9.332326	305.938721	316.343307
9.437184	321.168900	336.742401
9.542042	325.136185	345.668793
9.646899	313.768387	318.775177
9.751757	311.117172	324.869156
9.856614	302.639008	328.674316
9.961472	306.930542	306.797028
10.066330	312.271118	328.521729
10.171187	313.301086	331.134796
10.276045	303.220749	313.930511
10.380902	305.795670	320.692062
10.485760	295.677185	313.653946
10.590618	339.260101	353.603363
10.695475	329.389572	352.563858
10.800333	321.989059	333.051682
10.905190	332.689285	345.802307
11.010048	293.827057	311.326981
11.114906	350.551605	369.033813
11.219763	323.686600	340.976715
11.324621	285.301208	299.415588
11.429478	351.896286	376.615524
11.534336	303.049088	306.577682
11.639194	305.366516	324.459076
11.744051	325.803757	342.130661
11.848909	323.438644	338.335037
11.953766	321.922302	333.194733
12.058624	281.677246	297.813416
12.163482	316.724777	332.574844
12.268339	295.763016	311.021805
12.373197	308.609009	323.333740
12.478054	327.434540	333.175659
12.582912	337.629318	354.652405
12.687770	292.129517	308.599472
12.792627	300.436020	313.444138
12.897485	332.241058	354.986191
13.002342	314.311981	329.370499
13.107200	341.730118	357.284546
13.212058	336.942673	350.580215
13.316915	303.373337	325.698853
13.421773	361.595154	373.077393
13.526630	309.791565	333.786011
13.631488	310.220718	323.858261
13.736346	329.980850	347.080231
13.841203	315.704346	338.792801
13.946061	327.415466	344.362259
14.050918	320.777893	334.997177
14.155776	327.482224	340.528488
14.260634	295.505524	310.306549
14.365491	313.205719	330.200195
14.470349	313.224792	335.597992
14.575206	318.365097	327.978134
14.680064	346.288681	354.127884
14.784922	301.084518	316.009521
14.889779	311.069489	319.213867
14.994637	311.613083	328.817368
15.099494	310.182571	333.976746
15.204352	286.340714	296.268463
15.309210	326.375961	346.765518
15.414067	314.445496	330.038071
15.518925	302.267075	321.664810
15.623782	319.051743	333.862305
15.728640	302.228928	322.523117
15.833498	301.084518	310.430527
15.938355	335.378647	352.249146
16.043213	339.517593	361.585617
16.148070	358.314514	373.764038
16.252928	304.603577	322.418213
16.357786	299.024582	308.952332
16.462643	299.539566	319.318771
16.567501	342.187881	363.693237
16.672358	313.377380	332.298279
16.777216	315.351486	327.911377
16.882074	295.934677	312.404633
16.986931	321.855545	328.931808
17.091789	301.952362	312.194824
17.196646	289.745331	308.856964
17.301504	288.133621	297.870636
17.406362	284.690857	303.239822
17.511219	309.410095	324.945450
17.616077	309.772491	332.918167
17.720934	351.266861	353.574753
17.825792	313.720703	331.029892
17.930650	311.965942	327.606201
18.035507	297.870636	311.746597
18.140365	343.465805	362.319946
18.245222	351.076126	362.930298
18.350080	331.258774	356.082916
18.454938	327.320099	338.125229
18.559795	317.373276	327.625275
18.664653	306.034088	330.324173
18.769510	314.435959	323.858261
18.874368	310.392380	329.713821
18.979226	347.900391	357.952118
19.084083	344.190598	361.318588
19.188941	322.647095	340.795517
19.293798	320.444107	338.516235
19.398656	342.988968	360.631943
19.503514	314.750671	331.716537
19.608371	308.609009	327.911377
19.713229	305.976868	316.028595
19.818086	288.581848	296.859741
