1/9/2026	11:54 AM
Pseudo Cross Correlation
Scattering angle:	130.0
Duration (s):	20
Wavelength (nm):	632.8
Refractive index:	1.330
Viscosity (mPas):	0.741
Temperature (K):	306.7
Laser intensity (mW):	8.514208
Average Count rate  A (kHz):	125.1
Average Count rate  B (kHz):	125.6
Intercept:	0.8802
Cumulant 1st	73.25
Cumulant 2nd	72.56	7.73
Cumulant 3rd	70.79	20.90

Lag time (s)         g2-1
1.250000E-8	0.883414
2.500000E-8	0.866974
3.750000E-8	0.893689
5.000000E-8	0.874166
6.250000E-8	0.889836
7.500000E-8	0.865946
8.750000E-8	0.871341
1.000000E-7	0.859781
1.125000E-7	0.905505
1.250000E-7	0.909615
1.375000E-7	0.883414
1.500000E-7	0.900624
1.625000E-7	0.870570
1.750000E-7	0.871597
1.875000E-7	0.875964
2.000000E-7	0.912954
2.125000E-7	0.884698
2.250000E-7	0.866203
2.375000E-7	0.869286
2.500000E-7	0.882643
2.625000E-7	0.896258
2.750000E-7	0.884184
2.875000E-7	0.871084
3.000000E-7	0.866974
3.125000E-7	0.863891
3.250000E-7	0.882386
3.375000E-7	0.900881
3.500000E-7	0.869799
3.625000E-7	0.869286
3.750000E-7	0.868258
3.875000E-7	0.862607
4.000000E-7	0.911413
4.125000E-7	0.883927
4.250000E-7	0.855928
4.375000E-7	0.864405
4.500000E-7	0.907817
4.625000E-7	0.865689
4.750000E-7	0.880074
4.875000E-7	0.889322
5.000000E-7	0.885982
5.125000E-7	0.845653
5.250000E-7	0.856955
5.375000E-7	0.898569
5.500000E-7	0.863891
5.625000E-7	0.858497
5.750000E-7	0.909358
5.875000E-7	0.874166
6.000000E-7	0.893175
6.125000E-7	0.863634
6.250000E-7	0.861836
6.375000E-7	0.888037
6.500000E-7	0.859267
6.625000E-7	0.881102
6.750000E-7	0.907560
6.875000E-7	0.877506
7.000000E-7	0.913725
7.125000E-7	0.879561
7.250000E-7	0.870313
7.375000E-7	0.833580
7.500000E-7	0.884184
7.625000E-7	0.872368
7.750000E-7	0.889579
7.875000E-7	0.864148
8.000000E-7	0.892661
8.250000E-7	0.900111
8.500000E-7	0.906147
8.750000E-7	0.891248
9.000000E-7	0.879175
9.250000E-7	0.876863
9.500000E-7	0.868515
9.750000E-7	0.882515
1.000000E-6	0.870827
1.025000E-6	0.887138
1.050000E-6	0.896001
1.075000E-6	0.874937
1.100000E-6	0.862864
1.125000E-6	0.903450
1.150000E-6	0.842057
1.175000E-6	0.891634
1.200000E-6	0.861066
1.225000E-6	0.891634
1.250000E-6	0.898698
1.275000E-6	0.875964
1.300000E-6	0.854258
1.325000E-6	0.881359
1.350000E-6	0.880845
1.375000E-6	0.877891
1.400000E-6	0.899725
1.425000E-6	0.871341
1.450000E-6	0.879175
1.475000E-6	0.871212
1.500000E-6	0.857341
1.525000E-6	0.883927
1.550000E-6	0.865689
1.575000E-6	0.872753
1.600000E-6	0.875836
1.650000E-6	0.855543
1.700000E-6	0.871854
1.750000E-6	0.878084
1.800000E-6	0.865625
1.850000E-6	0.872496
1.900000E-6	0.867487
1.950000E-6	0.892854
2.000000E-6	0.877120
2.050000E-6	0.866588
2.100000E-6	0.877827
2.150000E-6	0.864084
2.200000E-6	0.879432
2.250000E-6	0.878148
2.300000E-6	0.876093
2.350000E-6	0.891891
2.400000E-6	0.872882
2.450000E-6	0.879753
2.500000E-6	0.894524
2.550000E-6	0.866267
2.600000E-6	0.851882
2.650000E-6	0.865176
2.700000E-6	0.885212
2.750000E-6	0.880074
2.800000E-6	0.873074
2.850000E-6	0.859011
2.900000E-6	0.845974
2.950000E-6	0.845717
3.000000E-6	0.871983
3.050000E-6	0.875707
3.100000E-6	0.865882
3.150000E-6	0.870634
3.200000E-6	0.874616
3.300000E-6	0.866492
3.400000E-6	0.866203
3.500000E-6	0.846359
3.600000E-6	0.881744
3.700000E-6	0.868836
3.800000E-6	0.864983
3.900000E-6	0.865689
4.000000E-6	0.860423
4.100000E-6	0.865689
4.200000E-6	0.860455
4.300000E-6	0.877152
4.400000E-6	0.874391
4.500000E-6	0.867231
4.600000E-6	0.853680
4.700000E-6	0.856923
4.800000E-6	0.857726
4.900000E-6	0.856763
5.000000E-6	0.859460
5.100000E-6	0.863185
5.200000E-6	0.857855
5.300000E-6	0.865176
5.400000E-6	0.860873
5.500000E-6	0.852203
5.600000E-6	0.857084
5.700000E-6	0.865529
5.800000E-6	0.856281
5.900000E-6	0.851657
6.000000E-6	0.859107
6.100000E-6	0.861932
6.200000E-6	0.849249
6.300000E-6	0.853712
6.400000E-6	0.860616
6.600000E-6	0.860504
6.800000E-6	0.853825
7.000000E-6	0.848270
7.200000E-6	0.858352
7.400000E-6	0.854226
7.600000E-6	0.841912
7.800000E-6	0.850501
8.000000E-6	0.852573
8.200000E-6	0.843293
8.400000E-6	0.848543
8.600000E-6	0.846873
8.800000E-6	0.839825
9.000000E-6	0.838284
9.200000E-6	0.832215
9.400000E-6	0.846183
9.600000E-6	0.838412
9.800000E-6	0.842057
1.000000E-5	0.826435
1.020000E-5	0.842057
1.040000E-5	0.845187
1.060000E-5	0.845075
1.080000E-5	0.828555
1.100000E-5	0.835474
1.120000E-5	0.832151
1.140000E-5	0.834174
1.160000E-5	0.836855
1.180000E-5	0.826692
1.200000E-5	0.833451
1.220000E-5	0.821266
1.240000E-5	0.832408
1.260000E-5	0.827832
1.280000E-5	0.819371
1.320000E-5	0.821972
1.360000E-5	0.818569
1.400000E-5	0.818585
1.440000E-5	0.817653
1.480000E-5	0.817782
1.520000E-5	0.819283
1.560000E-5	0.817059
1.600000E-5	0.813423
1.640000E-5	0.805829
1.680000E-5	0.812379
1.720000E-5	0.805203
1.760000E-5	0.806471
1.800000E-5	0.811480
1.840000E-5	0.802273
1.880000E-5	0.800708
1.920000E-5	0.794920
1.960000E-5	0.794800
2.000000E-5	0.799006
2.040000E-5	0.798564
2.080000E-5	0.786756
2.120000E-5	0.789967
2.160000E-5	0.790031
2.200000E-5	0.783152
2.240000E-5	0.790481
2.280000E-5	0.787703
2.320000E-5	0.787784
2.360000E-5	0.779122
2.400000E-5	0.777541
2.440000E-5	0.776337
2.480000E-5	0.775678
2.520000E-5	0.773198
2.560000E-5	0.770348
2.640000E-5	0.773724
2.720000E-5	0.772624
2.800000E-5	0.767065
2.880000E-5	0.768004
2.960000E-5	0.764805
3.040000E-5	0.759222
3.120000E-5	0.754398
3.200000E-5	0.751917
3.280000E-5	0.742164
3.360000E-5	0.746001
3.440000E-5	0.742208
3.520000E-5	0.743264
3.600000E-5	0.735682
3.680000E-5	0.736252
3.760000E-5	0.728397
3.840000E-5	0.731993
3.920000E-5	0.725708
4.000000E-5	0.720992
4.080000E-5	0.719816
4.160000E-5	0.719852
4.240000E-5	0.715389
4.320000E-5	0.715301
4.400000E-5	0.710520
4.480000E-5	0.709457
4.560000E-5	0.704223
4.640000E-5	0.700948
4.720000E-5	0.701630
4.800000E-5	0.695409
4.880000E-5	0.697436
4.960000E-5	0.698427
5.040000E-5	0.684668
5.120000E-5	0.687446
5.280000E-5	0.680261
5.440000E-5	0.676139
5.600000E-5	0.668111
5.760000E-5	0.664644
5.920000E-5	0.661501
6.080000E-5	0.657315
6.240000E-5	0.652126
6.400000E-5	0.649148
6.560000E-5	0.640250
6.720000E-5	0.636540
6.880000E-5	0.631844
7.040000E-5	0.627022
7.200000E-5	0.623544
7.360000E-5	0.617695
7.520000E-5	0.612298
7.680000E-5	0.610824
7.840000E-5	0.602577
8.000000E-5	0.599537
8.160000E-5	0.591526
8.320000E-5	0.592003
8.480000E-5	0.583239
8.640000E-5	0.579931
8.800000E-5	0.575353
8.960000E-5	0.572161
9.120000E-5	0.565697
9.280000E-5	0.563919
9.440000E-5	0.559199
9.600000E-5	0.552828
9.760000E-5	0.554167
9.920000E-5	0.545857
0.000101	0.540549
0.000102	0.538980
0.000106	0.531859
0.000109	0.523469
0.000112	0.514639
0.000115	0.510357
0.000118	0.499831
0.000122	0.494329
0.000125	0.487578
0.000128	0.478140
0.000131	0.472005
0.000134	0.461135
0.000138	0.455499
0.000141	0.449707
0.000144	0.442906
0.000147	0.435599
0.000150	0.430145
0.000154	0.421101
0.000157	0.417937
0.000160	0.411524
0.000163	0.403696
0.000166	0.397214
0.000170	0.395104
0.000173	0.387362
0.000176	0.381290
0.000179	0.375593
0.000182	0.368656
0.000186	0.364885
0.000189	0.360957
0.000192	0.354377
0.000195	0.348393
0.000198	0.343139
0.000202	0.338974
0.000205	0.334650
0.000211	0.323655
0.000218	0.314018
0.000224	0.304126
0.000230	0.296213
0.000237	0.287278
0.000243	0.276977
0.000250	0.269151
0.000256	0.261731
0.000262	0.253421
0.000269	0.244604
0.000275	0.239292
0.000282	0.232516
0.000288	0.223503
0.000294	0.218584
0.000301	0.212419
0.000307	0.205728
0.000314	0.199047
0.000320	0.193729
0.000326	0.188087
0.000333	0.180161
0.000339	0.175487
0.000346	0.171059
0.000352	0.166722
0.000358	0.161121
0.000365	0.156233
0.000371	0.150487
0.000378	0.147479
0.000384	0.143640
0.000390	0.139284
0.000397	0.136437
0.000403	0.131130
0.000410	0.126951
0.000422	0.118559
0.000435	0.111085
0.000448	0.104743
0.000461	0.098435
0.000474	0.092793
0.000486	0.087286
0.000499	0.081892
0.000512	0.076988
0.000525	0.073311
0.000538	0.069086
0.000550	0.063122
0.000563	0.059666
0.000576	0.056836
0.000589	0.053229
0.000602	0.050241
0.000614	0.047578
0.000627	0.044771
0.000640	0.041417
0.000653	0.038194
0.000666	0.037024
0.000678	0.033318
0.000691	0.032098
0.000704	0.030233
0.000717	0.028870
0.000730	0.027011
0.000742	0.026858
0.000755	0.025446
0.000768	0.023762
0.000781	0.022928
0.000794	0.022186
0.000806	0.020419
0.000819	0.021172
0.000845	0.019261
0.000870	0.016830
0.000896	0.016073
0.000922	0.014500
0.000947	0.013100
0.000973	0.012262
0.000998	0.011093
0.001024	0.011142
0.001050	0.009339
0.001075	0.008901
0.001101	0.008298
0.001126	0.008341
0.001152	0.008876
0.001178	0.007849
0.001203	0.007272
0.001229	0.007857
0.001254	0.007631
0.001280	0.007549
0.001306	0.007710
0.001331	0.007547
0.001357	0.008225
0.001382	0.007031
0.001408	0.006840
0.001434	0.006007
0.001459	0.005130
0.001485	0.005256
0.001510	0.004674
0.001536	0.005255
0.001562	0.005229
0.001587	0.005094
0.001613	0.004945
0.001638	0.004017
0.001690	0.003875
0.001741	0.003679
0.001792	0.003509
0.001843	0.002778
0.001894	0.001946
0.001946	0.001453
0.001997	0.000739
0.002048	0.000549
0.002099	0.000465
0.002150	0.000879
0.002202	0.001389
0.002253	0.001056
0.002304	0.001600
0.002355	0.001407
0.002406	0.002615
0.002458	0.001844
0.002509	0.001321
0.002560	0.001045
0.002611	0.002541
0.002662	0.003879
0.002714	0.006255
0.002765	0.006437
0.002816	0.005182
0.002867	0.005176
0.002918	0.006586
0.002970	0.007582
0.003021	0.007236
0.003072	0.006109
0.003123	0.004565
0.003174	0.003194
0.003226	0.001938
0.003277	0.001198
0.003379	0.000651
0.003482	0.000633
0.003584	0.002669
0.003686	0.004648
0.003789	0.004141
0.003891	0.005120
0.003994	0.006173
0.004096	0.006476
0.004198	0.007252
0.004301	0.005953
0.004403	0.004347
0.004506	0.002164
0.004608	0.001215
0.004710	0.003584
0.004813	0.006233
0.004915	0.007429
0.005018	0.006720
0.005120	0.004862
0.005222	0.005951
0.005325	0.002865
0.005427	0.003064
0.005530	0.003410
0.005632	0.003054
0.005734	0.002665
0.005837	0.002353
0.005939	0.002941
0.006042	0.003277
0.006144	0.003431
0.006246	0.005318
0.006349	0.005433
0.006451	0.003791
0.006554	0.002257
0.006758	0.001098
0.006963	-0.000198
0.007168	0.003076
0.007373	0.004651
0.007578	0.002913
0.007782	0.002242
0.007987	-0.000177
0.008192	0.001785
0.008397	0.004655
0.008602	0.003688
0.008806	0.000349
0.009011	-0.000346
0.009216	0.001277
0.009421	0.003514
0.009626	0.005242
0.009830	0.006319
0.010035	0.009225
0.010240	0.009390
0.010445	0.005746
0.010650	0.003719
0.010854	0.002988
0.011059	0.003514
0.011264	0.003104
0.011469	0.005358
0.011674	0.005586
0.011878	0.007051
0.012083	0.006542
0.012288	0.007631
0.012493	0.006593
0.012698	0.005334
0.012902	0.001932
0.013107	0.001478
0.013517	0.002734
0.013926	0.003740
0.014336	-0.001878
0.014746	0.000162
0.015155	0.001150
0.015565	-0.003506
0.015974	-0.003150
0.016384	0.001199
0.016794	0.001388
0.017203	0.003383
0.017613	0.003597
0.018022	0.000119
0.018432	-0.003941
0.018842	-0.000382
0.019251	0.000957
0.019661	0.003728
0.020070	0.004724
0.020480	-0.000416
0.020890	-0.000300
0.021299	0.002412
0.021709	0.003689
0.022118	0.005377
0.022528	0.006796
0.022938	0.003923
0.023347	0.003371
0.023757	0.002854
0.024166	0.003483
0.024576	0.001710
0.024986	0.002733
0.025395	0.004021
0.025805	0.002590
0.026214	-0.000272
0.027034	-5.755349E-5
0.027853	-0.000338
0.028672	0.002090
0.029491	0.002820
0.030310	-0.001563
0.031130	0.000303
0.031949	0.001244
0.032768	0.001757
0.033587	0.005305
0.034406	0.000298
0.035226	0.000716
0.036045	0.001747
0.036864	0.000401
0.037683	0.002472
0.038502	0.001730
0.039322	0.000941
0.040141	0.000556
0.040960	0.001583
0.041779	0.001936
0.042598	0.002577
0.043418	-7.636000E-5
0.044237	0.001613
0.045056	0.000540
0.045875	0.000110
0.046694	0.004766
0.047514	0.004160
0.048333	0.000307
0.049152	3.492855E-5
0.049971	0.001430
0.050790	0.003042
0.051610	0.003240
0.052429	0.004395
0.054067	0.000534
0.055706	0.000678
0.057344	-0.000567
0.058982	0.002087
0.060621	0.000384
0.062259	-3.575973E-5
0.063898	0.001633
0.065536	0.001089
0.067174	0.000406
0.068813	0.000938
0.070451	0.000370
0.072090	0.000148
0.073728	0.003925
0.075366	0.001717
0.077005	0.002187
0.078643	0.003333
0.080282	0.001094
0.081920	-0.001559
0.083558	0.001758
0.085197	3.085945E-5
0.086835	0.000629
0.088474	0.001849
0.090112	-0.001957
0.091750	-0.001640
0.093389	0.000760
0.095027	0.003496
0.096666	0.000221
0.098304	-0.001255
0.099942	-0.000598
0.101581	-0.000373
0.103219	0.002315
0.104858	-0.003681
0.108134	7.333415E-5
0.111411	-0.000667
0.114688	-0.000756
0.117965	0.001880
0.121242	0.000427
0.124518	0.001392
0.127795	0.002385
0.131072	-0.000410
0.134349	0.003194
0.137626	-0.002239
0.140902	0.001261
0.144179	-0.000239
0.147456	0.000896
0.150733	-0.001524
0.154010	0.000527
0.157286	-0.000747
0.160563	0.001791
0.163840	0.000909
0.167117	0.000573
0.170394	0.000437
0.173670	8.036527E-5
0.176947	-0.000141
0.180224	0.001920
0.183501	-0.000106
0.186778	0.000365
0.190054	0.001079
0.193331	0.000415
0.196608	0.000151
0.199885	-0.000888
0.203162	-0.001603
0.206438	-0.000679
0.209715	-0.001119
0.216269	0.000265
0.222822	0.000295
0.229376	-0.000468
0.235930	0.000546
0.242483	-0.000501
0.249037	-0.000785
0.255590	0.000249
0.262144	0.000679
0.268698	0.000870
0.275251	-0.001088
0.281805	-0.001115
0.288358	0.000666
0.294912	-0.001038
0.301466	-4.643909E-5
0.308019	0.000316
0.314573	0.001162
0.321126	-7.904910E-6
0.327680	-0.000683
0.334234	0.000350
0.340787	2.883933E-5
0.347341	0.000190
0.353894	0.001610
0.360448	0.002296
0.367002	-4.582314E-5
0.373555	-0.001937
0.380109	-0.000902
0.386662	0.000760
0.393216	0.001029
0.399770	-0.000420
0.406323	0.000235
0.412877	-0.000442
0.419430	-0.000525
0.432538	0.000148
0.445645	0.000545
0.458752	-5.462281E-5
0.471859	-0.000635
0.484966	-0.001127
0.498074	-9.048657E-6
0.511181	-0.001185
0.524288	-0.000469
0.537395	0.000518
0.550502	0.000506
0.563610	0.000546
0.576717	-0.000584
0.589824	0.000155
0.602931	-2.884741E-5
0.616038	-0.001001
0.629146	8.946724E-5
0.642253	-0.000327
0.655360	-9.463473E-5
0.668467	0.001070
0.681574	-0.000909
0.694682	-0.000299
0.707789	0.001289
0.720896	0.001417
0.734003	0.001803
0.747110	0.001814
0.760218	0.000964
0.773325	0.000724
0.786432	-0.000432
0.799539	0.000220
0.812646	0.000588
0.825754	0.000373
0.838861	0.001180
0.865075	-0.000418
0.891290	0.000797
0.917504	0.000705
0.943718	0.001310
0.969933	0.000545
0.996147	-0.000409
1.022362	-0.000259
1.048576	-3.279219E-5
1.074790	0.001212
1.101005	-0.000145
1.127219	0.000343
1.153434	-7.384335E-5
1.179648	-0.000163
1.205862	0.000243
1.232077	-0.000710
1.258291	-0.000626
1.284506	1.068864E-5
1.310720	6.208059E-5
1.336934	-0.000232
1.363149	-0.000610
1.389363	0.000778
1.415578	4.962899E-5
1.441792	-5.527260E-5
1.468006	0.000388
1.494221	-0.001069
1.520435	3.300190E-5
1.546650	-0.000666
1.572864	-0.000458
1.599078	0.000174
1.625293	-0.000374
1.651507	0.000571
1.677722	-0.000150
1.730150	-0.000577
1.782579	0.000226
1.835008	0.000666
1.887437	-0.000450
1.939866	-1.691606E-5
1.992294	7.460768E-5
2.044723	-0.000361
2.097152	-0.000332
2.149581	0.000500
2.202010	0.000123
2.254438	0.000320
2.306867	-0.000445
2.359296	-0.000723
2.411725	-0.000605
2.464154	-0.000227
2.516582	0.000247
2.569011	-0.000205
2.621440	-0.000439
2.673869	-0.001134
2.726298	-0.000529
2.778726	-0.000679
2.831155	-0.000429
2.883584	0.000252
2.936013	0.000382
2.988442	0.000380
3.040870	-0.000894
3.093299	-0.000294
3.145728	-6.568581E-6
3.198157	0.000107
3.250586	-0.000308
3.303015	0.000632
3.355443	-0.000364
3.460301	-0.000157
3.565158	0.000254
3.670016	-2.075513E-5
3.774873	-0.000397
3.879731	-0.000348
3.984589	0.000721
4.089447	-0.000208
4.194304	-0.000182
4.299161	0.000555
4.404019	-0.000380
4.508877	-0.000572
4.613734	-0.000381
4.718592	3.683985E-5
4.823450	-0.000415
4.928307	0.000143
5.033165	-0.000140
5.138022	-3.499810E-5
5.242880	-0.000141
5.347738	-0.001056
5.452595	0.001036
5.557453	0.000281
5.662311	-0.000403
5.767168	-5.464971E-6
5.872025	-0.000191
5.976883	0.000154
6.081741	-0.000242
6.186598	0.000807
6.291456	0.000310
6.396314	-0.000673
6.501171	-0.000966
6.606029	-4.850587E-5
6.710886	-0.000560
6.920601	0.000340
7.130317	-0.000428
7.340032	0.000146
7.549747	-0.000487
7.759462	-5.010694E-5
7.969178	-1.910156E-6
8.178893	0.000211
8.388608	0.000303
8.598323	-0.000126
8.808039	-9.243355E-5
9.017754	0.000998
9.227468	-0.000120
9.437184	-0.000346
9.646899	0.000209
9.856614	0.000472
10.066330	-0.000193
10.276045	-0.000969
10.485760	0.000210
10.695476	-0.000403
10.905190	0.000447
11.114905	-0.000279
11.324621	0.000185
11.534336	-8.086715E-5
11.744051	0.001313
11.953767	0.000242
12.163482	0.000125
12.373197	0.000242
12.582912	-0.000304
12.792627	0.000580
13.002342	3.577531E-5
13.212058	0.000157
13.421773	0.000473
13.841203	-0.000418
14.260633	0.000569
14.680064	-0.000427
15.099494	0.000178
15.518925	-0.000175
15.938355	-0.000108
16.357786	-0.000325
16.777216	0.000201
17.196646	-0.000714
17.616077	0.000105
18.035507	0.000111
18.454937	-0.000389
18.874369	0.000000
19.293798	NaN
19.713228	NaN
20.132660	NaN
20.552090	NaN
20.971519	NaN
21.390951	NaN
21.810381	NaN
22.229811	NaN
22.649242	NaN
23.068672	NaN
23.488102	NaN
23.907534	NaN
24.326963	NaN
24.746393	NaN
25.165825	NaN
25.585255	NaN
26.004684	NaN
26.424116	NaN
26.843546	NaN
27.682405	NaN
28.521267	NaN
29.360128	NaN
30.198988	NaN
31.037849	NaN
31.876711	NaN
32.715572	NaN
33.554432	NaN
34.393291	NaN
35.232155	NaN
36.071014	NaN
36.909874	NaN
37.748737	NaN
38.587597	NaN
39.426456	NaN
40.265320	NaN
41.104179	NaN
41.943039	NaN
42.781902	NaN
43.620762	NaN
44.459621	NaN
45.298485	NaN
46.137344	NaN
46.976204	NaN
47.815067	NaN
48.653927	NaN
49.492786	NaN
50.331650	NaN
51.170509	NaN
52.009369	NaN
52.848232	NaN
53.687092	NaN
55.364811	NaN
57.042534	NaN
58.720257	NaN
60.397976	NaN
62.075699	NaN
63.753422	NaN
65.431145	NaN
67.108864	NaN
68.786583	NaN
70.464310	NaN
72.142029	NaN
73.819748	NaN
75.497475	NaN
77.175194	NaN
78.852913	NaN
80.530640	NaN
82.208359	NaN
83.886078	NaN
85.563805	NaN
87.241524	NaN
88.919243	NaN
90.596970	NaN
92.274689	NaN
93.952408	NaN
95.630135	NaN
97.307854	NaN
98.985573	NaN
100.663300	NaN
102.341019	NaN
104.018738	NaN
105.696465	NaN
107.374184	NaN
110.729622	NaN
114.085068	NaN
117.440514	NaN
120.795952	NaN
124.151398	NaN
127.506844	NaN
130.862289	NaN
134.217728	NaN
137.573166	NaN
140.928619	NaN
144.284058	NaN
147.639496	NaN
150.994949	NaN
154.350388	NaN
157.705826	NaN
161.061279	NaN
164.416718	NaN
167.772156	NaN
171.127609	NaN
174.483047	NaN
177.838486	NaN
181.193939	NaN
184.549377	NaN
187.904816	NaN
191.260269	NaN
194.615707	NaN
197.971146	NaN
201.326599	NaN
204.682037	NaN
208.037476	NaN
211.392929	NaN
214.748367	NaN
221.459244	NaN
228.170135	NaN
234.881027	NaN
241.591904	NaN
248.302795	NaN
255.013687	NaN
261.724579	NaN
268.435455	NaN
275.146332	NaN
281.857239	NaN
288.568115	NaN
295.278992	NaN
301.989899	NaN
308.700775	NaN
315.411652	NaN
322.122559	NaN
328.833435	NaN
335.544312	NaN
342.255219	NaN
348.966095	NaN
355.676971	NaN
362.387878	NaN
369.098755	NaN
375.809631	NaN
382.520538	NaN
389.231415	NaN
395.942291	NaN
402.653198	NaN
409.364075	NaN
416.074951	NaN
422.785858	NaN
429.496735	NaN
442.918488	NaN
456.340271	NaN
469.762054	NaN
483.183807	NaN
496.605591	NaN
510.027374	NaN
523.449158	NaN
536.870911	NaN
550.292664	NaN
563.714478	NaN
577.136230	NaN
590.557983	NaN
603.979797	NaN
617.401550	NaN
630.823303	NaN
644.245117	NaN
657.666870	NaN
671.088623	NaN
684.510437	NaN
697.932190	NaN
711.353943	NaN
724.775757	NaN
738.197510	NaN
751.619263	NaN
765.041077	NaN
778.462830	NaN
791.884583	NaN
805.306396	NaN
818.728149	NaN
832.149902	NaN
845.571716	NaN
858.993469	NaN
885.836975	NaN
912.680542	NaN
939.524109	NaN
966.367615	NaN
993.211182	NaN
1020.054749	NaN
1046.898315	NaN
1073.741821	NaN
1100.585327	NaN
1127.428955	NaN
1154.272461	NaN
1181.115967	NaN
1207.959595	NaN
1234.803101	NaN
1261.646606	NaN
1288.490234	NaN
1315.333740	NaN
1342.177246	NaN
1369.020874	NaN
1395.864380	NaN
1422.707886	NaN
1449.551514	NaN
1476.395020	NaN
1503.238525	NaN
1530.082153	NaN
1556.925659	NaN
1583.769165	NaN
1610.612793	NaN
1637.456299	NaN
1664.299805	NaN
1691.143433	NaN
1717.986938	NaN
1771.673950	NaN
1825.361084	NaN
1879.048218	NaN
1932.735229	NaN
1986.422363	NaN
2040.109497	NaN
2093.796631	NaN
2147.483643	NaN
2201.170654	NaN
2254.857910	NaN
2308.544922	NaN
2362.231934	NaN
2415.919189	NaN
2469.606201	NaN
2523.293213	NaN
2576.980469	NaN
2630.667480	NaN
2684.354492	NaN
2738.041748	NaN
2791.728760	NaN
2845.415771	NaN
2899.103027	NaN
2952.790039	NaN
3006.477051	NaN
3060.164307	NaN
3113.851318	NaN
3167.538330	NaN
3221.225586	NaN
3274.912598	NaN
3328.599609	NaN
3382.286865	NaN
3435.973877	NaN
0.000000	NaN
0.000000	NaN
0.000000	NaN
0.000000	NaN
0.000000	NaN
0.000000	NaN
0.000000	NaN
0.000000	NaN
0.000000	NaN
0.000000	NaN
0.000000	NaN
0.000000	NaN
0.000000	NaN
0.000000	NaN
0.000000	NaN
0.000000	NaN
0.000000	NaN
0.000000	NaN
0.000000	NaN
0.000000	NaN
0.000000	NaN
0.000000	NaN
0.000000	NaN
0.000000	NaN
0.000000	NaN
0.000000	NaN
0.000000	NaN
0.000000	NaN
0.000000	NaN
0.000000	NaN
0.000000	NaN
0.000000	NaN

Count Rate History (KHz)  CR CHA / CR CHB
0.000000	116.662979	114.555359
0.104858	140.323639	140.371323
0.209715	117.082596	119.428635
0.314573	113.515854	115.432739
0.419430	124.492645	122.575760
0.524288	124.673843	128.526688
0.629146	126.266479	126.628876
0.734003	118.312836	118.808746
0.838861	130.109787	126.810074
0.943718	122.852325	125.703812
1.048576	121.212006	124.788284
1.153434	118.436813	118.913651
1.258291	111.961365	112.247467
1.363149	124.883652	122.404099
1.468006	121.984482	124.387741
1.572864	124.444962	125.637054
1.677722	118.837357	117.340088
1.782579	124.540329	123.348236
1.887437	138.368607	140.228271
1.992294	141.391754	142.631531
2.097152	128.288269	124.320984
2.202010	118.684769	121.021271
2.306867	130.434036	131.759644
2.411725	121.164322	120.515823
2.516582	116.367340	118.989944
2.621440	131.807327	132.951736
2.726298	126.934052	127.353668
2.831155	129.947662	134.592056
2.936013	127.735138	127.172470
3.040870	133.132935	131.635666
3.145728	115.385056	118.074417
3.250586	122.385025	122.346878
3.355443	121.870041	120.820999
3.460301	140.199661	143.737793
3.565158	127.687454	130.043030
3.670016	129.890442	131.845474
3.774874	127.811432	124.378204
3.879731	119.714737	119.647980
3.984589	116.968155	117.530823
4.089446	119.266510	121.307373
4.194304	132.160187	131.435394
4.299162	135.412216	133.867264
4.404019	124.483109	124.616623
4.508877	115.900040	117.778778
4.613734	117.244720	118.427277
4.718592	108.985901	108.461380
4.823450	125.627518	123.920441
4.928307	114.946365	113.372803
5.033165	126.323700	122.032166
5.138022	128.583908	127.973557
5.242880	130.224228	131.368637
5.347738	126.953125	125.055313
5.452595	121.564865	123.167038
5.557453	117.778778	119.228363
5.662310	122.251511	122.461319
5.767168	128.488541	129.880905
5.872026	127.992630	128.459930
5.976883	132.398605	129.032135
6.081741	142.335892	141.639709
6.186598	114.107132	112.733841
6.291456	124.807358	125.360489
6.396314	119.991302	120.973587
6.501171	125.617981	128.431320
6.606029	134.439468	134.677887
6.710886	122.566223	120.286942
6.815744	127.668381	129.270554
6.920602	121.040344	118.045807
7.025459	130.338669	131.721497
7.130317	125.856400	128.679276
7.235174	122.032166	119.600296
7.340032	130.367279	132.837296
7.444890	122.117996	122.842789
7.549747	118.236542	115.919113
7.654605	126.991272	129.032135
7.759462	193.128586	196.733475
7.864320	131.883621	131.807327
7.969178	130.844116	131.797791
8.074035	140.409470	142.421722
8.178893	133.943558	133.295059
8.283750	140.218735	137.453079
8.388608	121.526718	121.040344
8.493466	128.850937	133.008957
8.598323	126.628876	122.823715
8.703181	117.197037	120.983124
8.808038	128.917694	128.383636
8.912896	133.972168	135.078430
9.017754	128.669739	128.192902
9.122611	128.498077	131.092072
9.227469	123.929977	123.891830
9.332326	113.296509	115.976334
9.437184	115.900040	115.842819
9.542042	118.112564	116.901398
9.646899	118.894577	121.383667
9.751757	133.504868	134.115219
9.856614	131.034851	132.427216
9.961472	118.980408	116.491318
10.066330	118.703842	122.413635
10.171187	109.128952	109.987259
10.276045	127.525330	128.183365
10.380902	114.755630	115.232468
10.485760	113.964081	112.953186
10.590618	124.282837	124.349594
10.695475	122.251511	121.612549
10.800333	113.811493	112.390518
10.905190	124.797821	126.810074
11.010048	141.448975	143.976212
11.114906	118.083954	117.559433
11.219763	118.570328	118.865967
11.324621	136.241913	134.983063
11.429478	110.263824	110.378265
11.534336	115.766525	116.853714
11.639194	132.112503	133.085251
11.744051	134.267807	134.544373
11.848909	126.934052	130.891800
11.953766	122.127533	123.786926
12.058624	131.912231	133.142471
12.163482	117.053986	117.940903
12.268339	121.316910	118.370056
12.373197	112.953186	116.577148
12.478054	114.240646	115.928650
12.582912	116.271973	116.033554
12.687770	122.451782	125.236511
12.792627	124.902725	122.833252
12.897485	117.292404	120.038986
13.002342	116.624832	114.259720
13.107200	116.701126	116.424561
13.212058	143.899918	145.158768
13.316915	127.010345	128.536224
13.421773	114.850998	116.987228
13.526630	121.879578	118.074417
13.631488	109.405518	106.077194
13.736346	129.137039	128.612518
13.841203	125.570297	126.571655
13.946061	128.870010	126.857758
14.050918	133.886337	133.342743
14.155776	113.506317	114.088058
14.260634	132.627487	131.835937
14.365491	123.929977	126.018524
14.470349	116.348267	114.002228
14.575206	117.626190	119.409561
14.680064	134.477615	138.196945
14.784922	119.915009	124.025345
14.889779	138.864517	133.905411
14.994637	126.304626	128.097534
15.099494	140.285492	136.823654
15.204352	130.157471	129.060745
15.309210	131.807327	133.695602
15.414067	122.175217	124.359131
15.518925	112.104416	115.785599
15.623782	131.168365	128.993988
15.728640	120.315552	120.801926
15.833498	121.250153	121.440887
15.938355	124.158859	124.540329
16.043213	125.427246	132.026672
16.148070	137.147903	135.478973
16.252928	128.364563	126.638412
16.357786	115.556717	116.577148
16.462643	122.470856	129.261017
16.567501	136.156082	131.177902
16.672358	122.079849	121.946335
16.777216	114.336014	114.183426
16.882074	130.491257	133.304596
16.986931	133.256912	130.901337
17.091789	129.423141	127.334595
17.196646	124.559402	128.593445
17.301504	128.755569	129.089355
17.406362	120.754242	115.842819
17.511219	132.589340	134.887695
17.616077	119.295120	117.540359
17.720934	122.032166	124.731064
17.825792	118.055344	117.235184
17.930650	141.582489	143.022537
18.035507	120.925903	124.578476
18.140365	114.517212	114.307404
18.245222	122.995377	124.540329
18.350080	130.367279	128.231049
18.454938	117.492676	119.810104
18.559795	121.917725	118.970871
18.664653	137.472153	142.431259
18.769510	133.562088	129.852295
18.874368	130.271912	132.942200
18.979226	113.744736	116.624832
19.084083	115.709305	115.661621
19.188941	111.198425	109.643936
19.293798	128.326416	130.691528
19.398656	118.503571	119.771957
19.503514	146.188736	145.959854
19.608371	142.183304	145.759583
19.713229	125.198364	128.993988
