1/9/2026	11:30 AM
Pseudo Cross Correlation
Scattering angle:	130.0
Duration (s):	20
Wavelength (nm):	632.8
Refractive index:	1.330
Viscosity (mPas):	0.742
Temperature (K):	306.6
Laser intensity (mW):	8.543152
Average Count rate  A (kHz):	368.7
Average Count rate  B (kHz):	385.1
Intercept:	0.8164
Cumulant 1st	464.66
Cumulant 2nd	645.75	533.30
Cumulant 3rd	866.67	1591.36

Lag time (s)         g2-1
1.250000E-8	0.814819
2.500000E-8	0.812754
3.750000E-8	0.803393
5.000000E-8	0.806674
6.250000E-8	0.816714
7.500000E-8	0.808964
8.750000E-8	0.804977
1.000000E-7	0.822568
1.125000E-7	0.807550
1.250000E-7	0.815300
1.375000E-7	0.812330
1.500000E-7	0.806221
1.625000E-7	0.825792
1.750000E-7	0.812811
1.875000E-7	0.812811
2.000000E-7	0.799179
2.125000E-7	0.802997
2.250000E-7	0.811453
2.375000E-7	0.804835
2.500000E-7	0.806787
2.625000E-7	0.811934
2.750000E-7	0.804185
2.875000E-7	0.820136
3.000000E-7	0.800763
3.125000E-7	0.797001
3.250000E-7	0.809898
3.375000E-7	0.819089
3.500000E-7	0.806504
3.625000E-7	0.810690
3.750000E-7	0.818495
3.875000E-7	0.803450
4.000000E-7	0.796832
4.125000E-7	0.816912
4.250000E-7	0.800367
4.375000E-7	0.827998
4.500000E-7	0.803563
4.625000E-7	0.801838
4.750000E-7	0.815611
4.875000E-7	0.809276
5.000000E-7	0.801526
5.125000E-7	0.804044
5.250000E-7	0.824067
5.375000E-7	0.817392
5.500000E-7	0.811538
5.625000E-7	0.797115
5.750000E-7	0.822964
5.875000E-7	0.807664
6.000000E-7	0.811793
6.125000E-7	0.821550
6.250000E-7	0.799858
6.375000E-7	0.809276
6.500000E-7	0.810577
6.625000E-7	0.808936
6.750000E-7	0.812330
6.875000E-7	0.807692
7.000000E-7	0.810944
7.125000E-7	0.804892
7.250000E-7	0.819033
7.375000E-7	0.804835
7.500000E-7	0.812641
7.625000E-7	0.809162
7.750000E-7	0.814197
7.875000E-7	0.814988
8.000000E-7	0.807070
8.250000E-7	0.802587
8.500000E-7	0.803874
8.750000E-7	0.821437
9.000000E-7	0.809926
9.250000E-7	0.809969
9.500000E-7	0.809657
9.750000E-7	0.808470
1.000000E-6	0.809771
1.025000E-6	0.814027
1.050000E-6	0.808229
1.075000E-6	0.811708
1.100000E-6	0.822794
1.125000E-6	0.809134
1.150000E-6	0.820037
1.175000E-6	0.817110
1.200000E-6	0.811185
1.225000E-6	0.809954
1.250000E-6	0.812259
1.275000E-6	0.814126
1.300000E-6	0.810421
1.325000E-6	0.809544
1.350000E-6	0.814918
1.375000E-6	0.811736
1.400000E-6	0.817746
1.425000E-6	0.807296
1.450000E-6	0.816544
1.475000E-6	0.813673
1.500000E-6	0.806702
1.525000E-6	0.814550
1.550000E-6	0.811354
1.575000E-6	0.807211
1.600000E-6	0.819909
1.650000E-6	0.806751
1.700000E-6	0.814444
1.750000E-6	0.813468
1.800000E-6	0.811566
1.850000E-6	0.805401
1.900000E-6	0.809445
1.950000E-6	0.809884
2.000000E-6	0.802226
2.050000E-6	0.809459
2.100000E-6	0.814529
2.150000E-6	0.806059
2.200000E-6	0.809332
2.250000E-6	0.807013
2.300000E-6	0.806681
2.350000E-6	0.812874
2.400000E-6	0.810329
2.450000E-6	0.810485
2.500000E-6	0.802877
2.550000E-6	0.817145
2.600000E-6	0.810265
2.650000E-6	0.813779
2.700000E-6	0.811319
2.750000E-6	0.818715
2.800000E-6	0.810159
2.850000E-6	0.809827
2.900000E-6	0.807268
2.950000E-6	0.810866
3.000000E-6	0.806221
3.050000E-6	0.810513
3.100000E-6	0.811877
3.150000E-6	0.808060
3.200000E-6	0.817456
3.300000E-6	0.808127
3.400000E-6	0.813150
3.500000E-6	0.811432
3.600000E-6	0.809756
3.700000E-6	0.813737
3.800000E-6	0.812323
3.900000E-6	0.810541
4.000000E-6	0.811644
4.100000E-6	0.813571
4.200000E-6	0.810990
4.300000E-6	0.809986
4.400000E-6	0.817396
4.500000E-6	0.815957
4.600000E-6	0.809201
4.700000E-6	0.808533
4.800000E-6	0.814861
4.900000E-6	0.808463
5.000000E-6	0.804362
5.100000E-6	0.809428
5.200000E-6	0.810842
5.300000E-6	0.810117
5.400000E-6	0.808508
5.500000E-6	0.814769
5.600000E-6	0.810969
5.700000E-6	0.806564
5.800000E-6	0.806652
5.900000E-6	0.806794
6.000000E-6	0.810849
6.100000E-6	0.809438
6.200000E-6	0.813037
6.300000E-6	0.813465
6.400000E-6	0.809322
6.600000E-6	0.809603
6.800000E-6	0.807314
7.000000E-6	0.810713
7.200000E-6	0.812035
7.400000E-6	0.807492
7.600000E-6	0.807413
7.800000E-6	0.808148
8.000000E-6	0.808369
8.200000E-6	0.809988
8.400000E-6	0.808938
8.600000E-6	0.807513
8.800000E-6	0.806759
9.000000E-6	0.808809
9.200000E-6	0.806228
9.400000E-6	0.807830
9.600000E-6	0.808390
9.800000E-6	0.808853
1.000000E-5	0.811535
1.020000E-5	0.805857
1.040000E-5	0.808821
1.060000E-5	0.809657
1.080000E-5	0.807064
1.100000E-5	0.809069
1.120000E-5	0.807685
1.140000E-5	0.809014
1.160000E-5	0.806925
1.180000E-5	0.807584
1.200000E-5	0.807867
1.220000E-5	0.807416
1.240000E-5	0.806953
1.260000E-5	0.808585
1.280000E-5	0.806531
1.320000E-5	0.806870
1.360000E-5	0.806243
1.400000E-5	0.805911
1.440000E-5	0.805690
1.480000E-5	0.808574
1.520000E-5	0.806992
1.560000E-5	0.804993
1.600000E-5	0.806170
1.640000E-5	0.805732
1.680000E-5	0.808007
1.720000E-5	0.803109
1.760000E-5	0.806299
1.800000E-5	0.803931
1.840000E-5	0.803640
1.880000E-5	0.806134
1.920000E-5	0.806382
1.960000E-5	0.805967
2.000000E-5	0.806719
2.040000E-5	0.803376
2.080000E-5	0.805763
2.120000E-5	0.804160
2.160000E-5	0.803100
2.200000E-5	0.804977
2.240000E-5	0.804602
2.280000E-5	0.803675
2.320000E-5	0.803679
2.360000E-5	0.803989
2.400000E-5	0.804825
2.440000E-5	0.804394
2.480000E-5	0.805758
2.520000E-5	0.802877
2.560000E-5	0.803681
2.640000E-5	0.802928
2.720000E-5	0.801879
2.800000E-5	0.804079
2.880000E-5	0.802791
2.960000E-5	0.801294
3.040000E-5	0.802313
3.120000E-5	0.802079
3.200000E-5	0.799861
3.280000E-5	0.801832
3.360000E-5	0.800286
3.440000E-5	0.800138
3.520000E-5	0.800578
3.600000E-5	0.801390
3.680000E-5	0.799731
3.760000E-5	0.799236
3.840000E-5	0.798389
3.920000E-5	0.797354
4.000000E-5	0.798159
4.080000E-5	0.797688
4.160000E-5	0.798280
4.240000E-5	0.796026
4.320000E-5	0.796487
4.400000E-5	0.796476
4.480000E-5	0.798033
4.560000E-5	0.796540
4.640000E-5	0.795621
4.720000E-5	0.794278
4.800000E-5	0.796084
4.880000E-5	0.795612
4.960000E-5	0.794294
5.040000E-5	0.794946
5.120000E-5	0.795675
5.280000E-5	0.793389
5.440000E-5	0.793051
5.600000E-5	0.793030
5.760000E-5	0.792822
5.920000E-5	0.792045
6.080000E-5	0.791660
6.240000E-5	0.791290
6.400000E-5	0.790541
6.560000E-5	0.790147
6.720000E-5	0.790377
6.880000E-5	0.789385
7.040000E-5	0.787796
7.200000E-5	0.788104
7.360000E-5	0.787278
7.520000E-5	0.785351
7.680000E-5	0.786581
7.840000E-5	0.785112
8.000000E-5	0.783847
8.160000E-5	0.783158
8.320000E-5	0.782844
8.480000E-5	0.781655
8.640000E-5	0.783254
8.800000E-5	0.782883
8.960000E-5	0.781898
9.120000E-5	0.782037
9.280000E-5	0.781375
9.440000E-5	0.779185
9.600000E-5	0.779502
9.760000E-5	0.777815
9.920000E-5	0.778655
0.000101	0.777703
0.000102	0.777112
0.000106	0.775333
0.000109	0.774581
0.000112	0.772665
0.000115	0.771900
0.000118	0.771072
0.000122	0.769539
0.000125	0.768712
0.000128	0.767917
0.000131	0.766162
0.000134	0.765204
0.000138	0.764231
0.000141	0.762674
0.000144	0.761386
0.000147	0.759888
0.000150	0.758685
0.000154	0.757388
0.000157	0.757643
0.000160	0.755523
0.000163	0.754660
0.000166	0.753278
0.000170	0.751746
0.000173	0.750438
0.000176	0.750021
0.000179	0.748131
0.000182	0.746783
0.000186	0.746221
0.000189	0.744365
0.000192	0.744001
0.000195	0.742663
0.000198	0.740666
0.000202	0.739579
0.000205	0.739007
0.000211	0.736050
0.000218	0.733565
0.000224	0.731052
0.000230	0.729340
0.000237	0.726299
0.000243	0.724455
0.000250	0.721687
0.000256	0.718734
0.000262	0.715828
0.000269	0.713836
0.000275	0.710835
0.000282	0.709300
0.000288	0.706705
0.000294	0.703931
0.000301	0.701549
0.000307	0.698992
0.000314	0.696347
0.000320	0.694523
0.000326	0.691131
0.000333	0.689091
0.000339	0.685724
0.000346	0.683873
0.000352	0.681500
0.000358	0.678782
0.000365	0.676041
0.000371	0.673566
0.000378	0.671516
0.000384	0.668306
0.000390	0.666546
0.000397	0.663665
0.000403	0.660913
0.000410	0.658723
0.000422	0.653446
0.000435	0.648678
0.000448	0.643222
0.000461	0.638182
0.000474	0.632890
0.000486	0.628099
0.000499	0.623386
0.000512	0.617938
0.000525	0.612992
0.000538	0.608232
0.000550	0.602819
0.000563	0.597663
0.000576	0.593067
0.000589	0.587563
0.000602	0.582350
0.000614	0.577637
0.000627	0.573003
0.000640	0.567994
0.000653	0.562814
0.000666	0.558334
0.000678	0.553194
0.000691	0.548501
0.000704	0.542974
0.000717	0.538443
0.000730	0.533791
0.000742	0.528855
0.000755	0.524046
0.000768	0.518675
0.000781	0.514101
0.000794	0.509273
0.000806	0.504871
0.000819	0.499765
0.000845	0.490281
0.000870	0.481048
0.000896	0.471879
0.000922	0.463013
0.000947	0.453924
0.000973	0.444988
0.000998	0.436061
0.001024	0.427318
0.001050	0.418862
0.001075	0.409991
0.001101	0.401533
0.001126	0.393326
0.001152	0.385059
0.001178	0.377090
0.001203	0.369393
0.001229	0.361394
0.001254	0.353425
0.001280	0.345788
0.001306	0.338446
0.001331	0.331004
0.001357	0.323779
0.001382	0.316756
0.001408	0.309534
0.001434	0.302468
0.001459	0.295776
0.001485	0.289273
0.001510	0.282580
0.001536	0.276456
0.001562	0.270323
0.001587	0.263860
0.001613	0.258009
0.001638	0.251946
0.001690	0.240287
0.001741	0.229100
0.001792	0.218206
0.001843	0.207711
0.001894	0.197967
0.001946	0.188690
0.001997	0.179714
0.002048	0.171346
0.002099	0.163380
0.002150	0.155604
0.002202	0.148477
0.002253	0.141533
0.002304	0.135112
0.002355	0.128828
0.002406	0.123080
0.002458	0.117825
0.002509	0.112764
0.002560	0.107740
0.002611	0.103486
0.002662	0.099164
0.002714	0.095452
0.002765	0.091911
0.002816	0.088573
0.002867	0.085394
0.002918	0.082440
0.002970	0.079737
0.003021	0.077105
0.003072	0.074663
0.003123	0.072498
0.003174	0.070572
0.003226	0.068173
0.003277	0.066355
0.003379	0.062856
0.003482	0.059513
0.003584	0.056736
0.003686	0.053958
0.003789	0.051820
0.003891	0.049897
0.003994	0.048003
0.004096	0.045972
0.004198	0.043959
0.004301	0.041618
0.004403	0.039800
0.004506	0.037711
0.004608	0.035431
0.004710	0.033200
0.004813	0.030729
0.004915	0.028356
0.005018	0.026043
0.005120	0.023844
0.005222	0.021872
0.005325	0.020024
0.005427	0.018125
0.005530	0.016254
0.005632	0.014544
0.005734	0.013135
0.005837	0.012293
0.005939	0.011466
0.006042	0.010511
0.006144	0.009513
0.006246	0.009042
0.006349	0.008276
0.006451	0.007548
0.006554	0.007139
0.006758	0.006605
0.006963	0.007061
0.007168	0.008234
0.007373	0.009381
0.007578	0.009568
0.007782	0.009584
0.007987	0.009545
0.008192	0.009147
0.008397	0.008778
0.008602	0.009347
0.008806	0.010150
0.009011	0.010665
0.009216	0.011943
0.009421	0.013096
0.009626	0.014359
0.009830	0.015488
0.010035	0.015978
0.010240	0.016132
0.010445	0.016224
0.010650	0.016634
0.010854	0.016724
0.011059	0.016325
0.011264	0.015214
0.011469	0.013748
0.011674	0.012233
0.011878	0.010959
0.012083	0.009710
0.012288	0.008891
0.012493	0.007932
0.012698	0.007109
0.012902	0.006456
0.013107	0.006117
0.013517	0.005897
0.013926	0.004519
0.014336	0.003699
0.014746	0.003300
0.015155	0.003881
0.015565	0.004241
0.015974	0.004874
0.016384	0.005141
0.016794	0.004862
0.017203	0.004717
0.017613	0.002451
0.018022	0.001395
0.018432	0.002029
0.018842	0.003149
0.019251	0.003391
0.019661	0.003905
0.020070	0.005677
0.020480	0.007264
0.020890	0.007736
0.021299	0.007079
0.021709	0.005191
0.022118	0.002617
0.022528	0.000425
0.022938	-0.001650
0.023347	-0.002904
0.023757	-0.003392
0.024166	-0.003546
0.024576	-0.003620
0.024986	-0.003365
0.025395	-0.003514
0.025805	-0.003318
0.026214	-0.003804
0.027034	-0.006436
0.027853	-0.009969
0.028672	-0.009940
0.029491	-0.008360
0.030310	-0.009158
0.031130	-0.008357
0.031949	-0.007362
0.032768	-0.006708
0.033587	-0.007191
0.034406	-0.010552
0.035226	-0.011408
0.036045	-0.008986
0.036864	-0.004305
0.037683	-0.001592
0.038502	-0.002631
0.039322	-0.006667
0.040141	-0.009942
0.040960	-0.009549
0.041779	-0.006805
0.042598	-0.005931
0.043418	-0.006585
0.044237	-0.009392
0.045056	-0.009881
0.045875	-0.007501
0.046694	-0.004282
0.047514	-0.005898
0.048333	-0.011770
0.049152	-0.014901
0.049971	-0.012557
0.050790	-0.006168
0.051610	-0.002118
0.052429	-0.001564
0.054067	-0.007080
0.055706	-0.006114
0.057344	-0.003215
0.058982	-0.007122
0.060621	-0.017224
0.062259	-0.006204
0.063898	0.001428
0.065536	0.002890
0.067174	-0.001316
0.068813	-0.003827
0.070451	-0.004740
0.072090	-0.000574
0.073728	0.012410
0.075366	0.014055
0.077005	0.009018
0.078643	-0.002946
0.080282	-0.009281
0.081920	-0.015542
0.083558	-0.020901
0.085197	-0.016602
0.086835	-0.007519
0.088474	0.004328
0.090112	0.015682
0.091750	0.013273
0.093389	0.003688
0.095027	0.001389
0.096666	0.005342
0.098304	0.004251
0.099942	0.005861
0.101581	0.006387
0.103219	-0.002276
0.104858	-0.003949
0.108134	-3.882317E-5
0.111411	0.008393
0.114688	0.000277
0.117965	-0.002933
0.121242	-0.007293
0.124518	-0.000846
0.127795	-0.007519
0.131072	-0.004386
0.134349	0.004597
0.137626	-0.000512
0.140902	0.002120
0.144179	-0.005546
0.147456	-0.005175
0.150733	-0.003675
0.154010	0.003869
0.157286	-0.013423
0.160563	0.005385
0.163840	0.014668
0.167117	0.003541
0.170394	0.000575
0.173670	-0.006138
0.176947	-0.007294
0.180224	0.001611
0.183501	0.002874
0.186778	-0.011668
0.190054	-0.007918
0.193331	0.005157
0.196608	-0.001793
0.199885	0.004170
0.203162	0.003775
0.206438	0.001894
0.209715	0.010471
0.216269	0.002820
0.222822	-0.003450
0.229376	0.000217
0.235930	0.008289
0.242483	0.003960
0.249037	-0.000350
0.255590	-0.002147
0.262144	0.003381
0.268698	0.004750
0.275251	0.004492
0.281805	0.005011
0.288358	-0.000928
0.294912	0.006011
0.301466	0.004772
0.308019	0.008205
0.314573	0.002091
0.321126	0.005293
0.327680	-0.005975
0.334234	-0.009062
0.340787	-0.000183
0.347341	0.000315
0.353894	-0.004299
0.360448	0.003316
0.367002	-0.010362
0.373555	0.006454
0.380109	-0.000308
0.386662	-0.003032
0.393216	0.004458
0.399770	0.006412
0.406323	-0.007844
0.412877	-0.006764
0.419430	0.001092
0.432538	-0.005312
0.445645	0.009518
0.458752	-0.003985
0.471859	4.491877E-5
0.484966	0.002425
0.498074	0.000345
0.511181	0.004740
0.524288	-0.003500
0.537395	0.002039
0.550502	-0.003824
0.563610	-0.001432
0.576717	0.001087
0.589824	-0.000741
0.602931	0.002472
0.616038	0.002069
0.629146	0.002489
0.642253	-0.001484
0.655360	-0.002426
0.668467	-0.001860
0.681574	0.005538
0.694682	-0.001265
0.707789	-0.005751
0.720896	0.006020
0.734003	0.007497
0.747110	0.001616
0.760218	-0.003513
0.773325	-0.006515
0.786432	0.002501
0.799539	0.005525
0.812646	-0.000541
0.825754	-0.002103
0.838861	-0.005577
0.865075	-0.005572
0.891290	0.005490
0.917504	-0.002996
0.943718	-0.002685
0.969933	-0.000630
0.996147	0.002477
1.022362	-0.000805
1.048576	-0.005562
1.074790	0.003272
1.101005	0.003245
1.127219	-0.000593
1.153434	-0.000319
1.179648	-0.003854
1.205862	-0.004583
1.232077	0.002751
1.258291	0.001759
1.284506	-0.007861
1.310720	-0.005509
1.336934	0.002443
1.363149	0.004052
1.389363	0.002989
1.415578	-0.000871
1.441792	-0.002493
1.468006	0.003069
1.494221	-0.000611
1.520435	-0.001299
1.546650	-0.000851
1.572864	0.008386
1.599078	0.000188
1.625293	-0.002490
1.651507	0.003345
1.677722	-0.004612
1.730150	-0.005900
1.782579	-0.001541
1.835008	-0.000400
1.887437	0.000477
1.939866	-0.000344
1.992294	-0.006089
2.044723	4.620765E-6
2.097152	-0.001246
2.149581	0.000125
2.202010	-0.001900
2.254438	0.001253
2.306867	-0.002752
2.359296	0.001008
2.411725	-0.003538
2.464154	-0.001322
2.516582	-0.002934
2.569011	0.003550
2.621440	-0.001012
2.673869	-0.002890
2.726298	0.003269
2.778726	-0.002848
2.831155	-8.000738E-5
2.883584	-0.004529
2.936013	9.086048E-5
2.988442	0.001814
3.040870	0.002350
3.093299	0.000942
3.145728	-0.000347
3.198157	-0.001361
3.250586	0.001122
3.303015	0.001161
3.355443	0.000313
3.460301	-0.000834
3.565158	0.000742
3.670016	0.002054
3.774873	0.001263
3.879731	-0.002180
3.984589	0.000691
4.089447	0.000970
4.194304	0.001689
4.299161	-0.001484
4.404019	-0.000170
4.508877	0.001934
4.613734	-0.001083
4.718592	0.002078
4.823450	0.001523
4.928307	0.001357
5.033165	-0.000600
5.138022	0.001769
5.242880	0.000836
5.347738	-0.001400
5.452595	0.001607
5.557453	-0.001581
5.662311	-0.002081
5.767168	-0.001657
5.872025	0.000867
5.976883	-0.001317
6.081741	0.001710
6.186598	-0.000205
6.291456	0.000300
6.396314	0.002487
6.501171	-0.001942
6.606029	-0.001301
6.710886	0.001067
6.920601	-3.518913E-6
7.130317	-0.001563
7.340032	-0.000556
7.549747	0.000765
7.759462	-0.001144
7.969178	-0.000674
8.178893	0.002226
8.388608	8.538775E-5
8.598323	-0.001137
8.808039	-0.001303
9.017754	0.000748
9.227468	0.000624
9.437184	-7.007883E-6
9.646899	0.000777
9.856614	-0.000554
10.066330	-0.001011
10.276045	-0.001198
10.485760	0.000211
10.695476	0.001265
10.905190	0.000575
11.114905	0.000190
11.324621	0.000821
11.534336	0.001101
11.744051	0.000533
11.953767	-0.001413
12.163482	-0.000397
12.373197	-0.000655
12.582912	-0.000920
12.792627	-0.001196
13.002342	-0.000456
13.212058	0.000994
13.421773	-0.001559
13.841203	0.000315
14.260633	0.004098
14.680064	0.000856
15.099494	-0.002022
15.518925	0.000924
15.938355	-0.001636
16.357786	-0.002142
16.777216	-0.001791
17.196646	0.003443
17.616077	-0.000763
18.035507	0.004303
18.454937	0.000688
18.874369	0.001205
19.293798	0.000000
19.713228	NaN
20.132660	NaN
20.552090	NaN
20.971519	NaN
21.390951	NaN
21.810381	NaN
22.229811	NaN
22.649242	NaN
23.068672	NaN
23.488102	NaN
23.907534	NaN
24.326963	NaN
24.746393	NaN
25.165825	NaN
25.585255	NaN
26.004684	NaN
26.424116	NaN
26.843546	NaN
27.682405	NaN
28.521267	NaN
29.360128	NaN
30.198988	NaN
31.037849	NaN
31.876711	NaN
32.715572	NaN
33.554432	NaN
34.393291	NaN
35.232155	NaN
36.071014	NaN
36.909874	NaN
37.748737	NaN
38.587597	NaN
39.426456	NaN
40.265320	NaN
41.104179	NaN
41.943039	NaN
42.781902	NaN
43.620762	NaN
44.459621	NaN
45.298485	NaN
46.137344	NaN
46.976204	NaN
47.815067	NaN
48.653927	NaN
49.492786	NaN
50.331650	NaN
51.170509	NaN
52.009369	NaN
52.848232	NaN
53.687092	NaN
55.364811	NaN
57.042534	NaN
58.720257	NaN
60.397976	NaN
62.075699	NaN
63.753422	NaN
65.431145	NaN
67.108864	NaN
68.786583	NaN
70.464310	NaN
72.142029	NaN
73.819748	NaN
75.497475	NaN
77.175194	NaN
78.852913	NaN
80.530640	NaN
82.208359	NaN
83.886078	NaN
85.563805	NaN
87.241524	NaN
88.919243	NaN
90.596970	NaN
92.274689	NaN
93.952408	NaN
95.630135	NaN
97.307854	NaN
98.985573	NaN
100.663300	NaN
102.341019	NaN
104.018738	NaN
105.696465	NaN
107.374184	NaN
110.729622	NaN
114.085068	NaN
117.440514	NaN
120.795952	NaN
124.151398	NaN
127.506844	NaN
130.862289	NaN
134.217728	NaN
137.573166	NaN
140.928619	NaN
144.284058	NaN
147.639496	NaN
150.994949	NaN
154.350388	NaN
157.705826	NaN
161.061279	NaN
164.416718	NaN
167.772156	NaN
171.127609	NaN
174.483047	NaN
177.838486	NaN
181.193939	NaN
184.549377	NaN
187.904816	NaN
191.260269	NaN
194.615707	NaN
197.971146	NaN
201.326599	NaN
204.682037	NaN
208.037476	NaN
211.392929	NaN
214.748367	NaN
221.459244	NaN
228.170135	NaN
234.881027	NaN
241.591904	NaN
248.302795	NaN
255.013687	NaN
261.724579	NaN
268.435455	NaN
275.146332	NaN
281.857239	NaN
288.568115	NaN
295.278992	NaN
301.989899	NaN
308.700775	NaN
315.411652	NaN
322.122559	NaN
328.833435	NaN
335.544312	NaN
342.255219	NaN
348.966095	NaN
355.676971	NaN
362.387878	NaN
369.098755	NaN
375.809631	NaN
382.520538	NaN
389.231415	NaN
395.942291	NaN
402.653198	NaN
409.364075	NaN
416.074951	NaN
422.785858	NaN
429.496735	NaN
442.918488	NaN
456.340271	NaN
469.762054	NaN
483.183807	NaN
496.605591	NaN
510.027374	NaN
523.449158	NaN
536.870911	NaN
550.292664	NaN
563.714478	NaN
577.136230	NaN
590.557983	NaN
603.979797	NaN
617.401550	NaN
630.823303	NaN
644.245117	NaN
657.666870	NaN
671.088623	NaN
684.510437	NaN
697.932190	NaN
711.353943	NaN
724.775757	NaN
738.197510	NaN
751.619263	NaN
765.041077	NaN
778.462830	NaN
791.884583	NaN
805.306396	NaN
818.728149	NaN
832.149902	NaN
845.571716	NaN
858.993469	NaN
885.836975	NaN
912.680542	NaN
939.524109	NaN
966.367615	NaN
993.211182	NaN
1020.054749	NaN
1046.898315	NaN
1073.741821	NaN
1100.585327	NaN
1127.428955	NaN
1154.272461	NaN
1181.115967	NaN
1207.959595	NaN
1234.803101	NaN
1261.646606	NaN
1288.490234	NaN
1315.333740	NaN
1342.177246	NaN
1369.020874	NaN
1395.864380	NaN
1422.707886	NaN
1449.551514	NaN
1476.395020	NaN
1503.238525	NaN
1530.082153	NaN
1556.925659	NaN
1583.769165	NaN
1610.612793	NaN
1637.456299	NaN
1664.299805	NaN
1691.143433	NaN
1717.986938	NaN
1771.673950	NaN
1825.361084	NaN
1879.048218	NaN
1932.735229	NaN
1986.422363	NaN
2040.109497	NaN
2093.796631	NaN
2147.483643	NaN
2201.170654	NaN
2254.857910	NaN
2308.544922	NaN
2362.231934	NaN
2415.919189	NaN
2469.606201	NaN
2523.293213	NaN
2576.980469	NaN
2630.667480	NaN
2684.354492	NaN
2738.041748	NaN
2791.728760	NaN
2845.415771	NaN
2899.103027	NaN
2952.790039	NaN
3006.477051	NaN
3060.164307	NaN
3113.851318	NaN
3167.538330	NaN
3221.225586	NaN
3274.912598	NaN
3328.599609	NaN
3382.286865	NaN
3435.973877	NaN
0.000000	NaN
0.000000	NaN
0.000000	NaN
0.000000	NaN
0.000000	NaN
0.000000	NaN
0.000000	NaN
0.000000	NaN
0.000000	NaN
0.000000	NaN
0.000000	NaN
0.000000	NaN
0.000000	NaN
0.000000	NaN
0.000000	NaN
0.000000	NaN
0.000000	NaN
0.000000	NaN
0.000000	NaN
0.000000	NaN
0.000000	NaN
0.000000	NaN
0.000000	NaN
0.000000	NaN
0.000000	NaN
0.000000	NaN
0.000000	NaN
0.000000	NaN
0.000000	NaN
0.000000	NaN
0.000000	NaN
0.000000	NaN

Count Rate History (KHz)  CR CHA / CR CHB
0.000000	376.262665	423.173904
0.104858	436.096191	431.642532
0.209715	384.874344	417.051315
0.314573	420.398712	444.173813
0.419430	346.021652	352.277756
0.524288	366.363525	386.333466
0.629146	397.653580	415.678024
0.734003	326.023102	334.663391
0.838861	365.886688	383.825302
0.943718	396.642685	427.684784
1.048576	433.330536	437.259674
1.153434	345.706940	366.344452
1.258291	345.268250	355.434418
1.363149	378.541946	402.193069
1.468006	354.862213	364.398956
1.572864	376.834869	393.142700
1.677722	285.615921	301.723480
1.782579	342.645645	356.817245
1.887437	384.817123	405.550003
1.992294	318.574905	324.544907
2.097152	391.273499	417.108536
2.202010	329.504013	349.864960
2.306867	337.324142	346.488953
2.411725	357.828140	367.879868
2.516582	372.362137	394.811630
2.621440	333.261490	344.915390
2.726298	477.972031	496.969223
2.831155	417.346954	433.979034
2.936013	357.475281	375.881195
3.040870	310.649872	330.524445
3.145728	321.617126	376.224518
3.250586	336.847305	313.873291
3.355443	344.562531	375.137329
3.460301	326.900482	323.343277
3.565158	334.243774	353.927612
3.670016	460.681915	471.172333
3.774874	398.426056	430.335999
3.879731	441.780090	451.965332
3.984589	411.977768	429.458618
4.089446	387.401581	432.300568
4.194304	489.215851	491.056442
4.299162	364.866257	379.867554
4.404019	317.659378	340.805054
4.508877	409.736633	421.581268
4.613734	335.569382	349.044800
4.718592	244.455338	257.530212
4.823450	363.607407	375.099182
4.928307	313.453674	337.829590
5.033165	356.349945	380.182266
5.138022	393.342972	417.242050
5.242880	374.364853	367.851257
5.347738	292.100906	306.339264
5.452595	309.419632	322.380066
5.557453	359.268188	373.010635
5.662310	346.593857	376.567841
5.767168	287.580490	280.494690
5.872026	336.027145	350.923538
5.976883	369.606018	392.217636
6.081741	400.981903	420.217514
6.186598	363.092422	388.088226
6.291456	376.720428	381.450653
6.396314	380.048752	407.104492
6.501171	326.452255	334.892273
6.606029	359.563828	374.517441
6.710886	325.403214	339.012146
6.815744	329.313278	362.806320
6.920602	384.597778	384.550095
7.025459	458.326340	491.600037
7.130317	360.975266	370.445251
7.235174	373.687744	388.774872
7.340032	376.882553	397.500992
7.444890	288.114548	304.460526
7.549747	448.398590	463.781357
7.654605	510.978699	534.934998
7.759462	390.825272	415.477753
7.864320	371.475220	390.510559
7.969178	345.401764	348.854065
8.074035	276.870728	286.598206
8.178893	378.370285	407.943726
8.283750	464.076996	486.698151
8.388608	372.552872	383.892059
8.493466	381.822586	390.253067
8.598323	370.893478	386.304855
8.703181	389.652252	420.799255
8.808038	354.385376	361.824036
8.912896	405.006409	420.846939
9.017754	395.660400	410.757065
9.122611	325.498581	347.070694
9.227469	488.576889	508.975983
9.332326	323.276520	344.429016
9.437184	347.604752	370.378494
9.542042	311.431885	315.361023
9.646899	337.467194	345.935822
9.751757	328.865051	341.205597
9.856614	322.027206	337.686539
9.961472	285.444260	299.043655
10.066330	349.006653	364.809036
10.171187	349.836349	368.146896
10.276045	264.329910	266.380310
10.380902	430.641174	455.722809
10.485760	328.159332	343.475342
10.590618	408.830643	425.491333
10.695475	409.326553	435.247421
10.800333	292.587280	316.419601
10.905190	452.728271	453.634262
11.010048	305.652618	350.170135
11.114906	392.856598	385.799408
11.219763	379.400253	402.193069
11.324621	385.360718	393.009186
11.429478	340.948105	352.706909
11.534336	329.179764	346.965790
11.639194	352.745056	372.753143
11.744051	349.245071	346.736908
11.848909	383.329391	404.415131
11.953766	414.848328	432.424545
12.058624	422.821045	449.323654
12.163482	336.399078	345.191956
12.268339	371.894836	393.714905
12.373197	453.615189	468.559265
12.478054	464.630127	480.690002
12.582912	329.561234	348.310471
12.687770	392.875671	411.787033
12.792627	443.229675	455.417633
12.897485	313.081741	326.137543
13.002342	389.862061	438.575745
13.107200	465.011597	456.237793
13.212058	353.107452	362.491608
13.316915	293.922424	311.746597
13.421773	399.589539	418.128967
13.526630	394.439697	405.998230
13.631488	422.382355	450.992584
13.736346	311.431885	356.082916
13.841203	402.517319	381.765366
13.946061	330.247879	351.734161
14.050918	319.900513	342.378616
14.155776	351.848602	356.378555
14.260634	345.296860	361.347198
14.365491	373.888016	389.547348
14.470349	396.842957	404.853821
14.575206	438.795090	465.974808
14.680064	444.755554	470.657349
14.784922	277.748108	271.615982
14.889779	379.686356	397.796631
14.994637	308.256149	334.529877
15.099494	471.506119	496.721268
15.204352	297.355652	303.506851
15.309210	487.899780	506.296158
15.414067	378.017426	396.442413
15.518925	360.641479	368.490219
15.623782	356.569290	394.401550
15.728640	383.167267	383.739471
15.833498	380.859375	410.470963
15.938355	296.564102	294.055939
16.043213	412.254333	445.537567
16.148070	295.076370	305.089951
16.252928	297.107697	314.226151
16.357786	310.792923	318.307877
16.462643	387.573242	404.834747
16.567501	350.627899	368.928909
16.672358	372.066498	382.490158
16.777216	362.806320	385.484695
16.882074	384.750366	404.453278
16.986931	322.179794	342.988968
17.091789	370.922089	373.058319
17.196646	416.545868	439.777374
17.301504	361.700058	367.517471
17.406362	323.238373	358.047485
17.511219	422.849655	443.658829
17.616077	380.468369	381.050110
17.720934	392.761230	404.958725
17.825792	344.924927	348.281860
17.930650	344.333649	361.833572
18.035507	357.685089	385.351181
18.140365	423.717499	440.282822
18.245222	510.931015	534.963608
18.350080	449.399948	485.353470
18.454938	338.716507	339.756012
18.559795	395.727158	414.142609
18.664653	386.400223	394.601822
18.769510	375.576019	395.736694
18.874368	380.325317	402.898788
18.979226	327.758789	338.563919
19.084083	381.727219	403.451920
19.188941	337.886810	348.739624
19.293798	311.765671	330.514908
19.398656	348.024368	377.321243
19.503514	346.488953	345.144272
19.608371	348.749161	388.965607
19.713229	436.067581	434.713364
19.818086	349.845886	360.937119
