1/9/2026	11:27 AM
Pseudo Cross Correlation
Scattering angle:	90.0
Duration (s):	20
Wavelength (nm):	632.8
Refractive index:	1.330
Viscosity (mPas):	0.742
Temperature (K):	306.6
Laser intensity (mW):	8.552085
Average Count rate  A (kHz):	576.1
Average Count rate  B (kHz):	603.3
Intercept:	0.9080
Cumulant 1st	564.22
Cumulant 2nd	629.60	254.41
Cumulant 3rd	641.99	317.94

Lag time (s)         g2-1
1.250000E-8	0.904380
2.500000E-8	0.904437
3.750000E-8	0.902069
5.000000E-8	0.911451
6.250000E-8	0.916569
7.500000E-8	0.901792
8.750000E-8	0.913034
1.000000E-7	0.899723
1.125000E-7	0.912548
1.250000E-7	0.907257
1.375000E-7	0.907083
1.500000E-7	0.900047
1.625000E-7	0.911208
1.750000E-7	0.905766
1.875000E-7	0.907233
2.000000E-7	0.905258
2.125000E-7	0.903271
2.250000E-7	0.914952
2.375000E-7	0.898210
2.500000E-7	0.914952
2.625000E-7	0.905246
2.750000E-7	0.904796
2.875000E-7	0.907453
3.000000E-7	0.902115
3.125000E-7	0.904911
3.250000E-7	0.901514
3.375000E-7	0.906875
3.500000E-7	0.914362
3.625000E-7	0.901052
3.750000E-7	0.908227
3.875000E-7	0.903120
4.000000E-7	0.907026
4.125000E-7	0.908412
4.250000E-7	0.904507
4.375000E-7	0.907337
4.500000E-7	0.906656
4.625000E-7	0.912467
4.750000E-7	0.908158
4.875000E-7	0.901179
5.000000E-7	0.908285
5.125000E-7	0.906390
5.250000E-7	0.907973
5.375000E-7	0.915830
5.500000E-7	0.896072
5.625000E-7	0.899562
5.750000E-7	0.907869
5.875000E-7	0.909036
6.000000E-7	0.907372
6.125000E-7	0.903837
6.250000E-7	0.899377
6.375000E-7	0.902219
6.500000E-7	0.916638
6.625000E-7	0.906332
6.750000E-7	0.896777
6.875000E-7	0.912906
7.000000E-7	0.905720
7.125000E-7	0.901537
7.250000E-7	0.916407
7.375000E-7	0.903444
7.500000E-7	0.909671
7.625000E-7	0.899770
7.750000E-7	0.901226
7.875000E-7	0.908458
8.000000E-7	0.904056
8.250000E-7	0.904299
8.500000E-7	0.908019
8.750000E-7	0.901058
9.000000E-7	0.903086
9.250000E-7	0.906171
9.500000E-7	0.904611
9.750000E-7	0.910971
1.000000E-6	0.906009
1.025000E-6	0.910284
1.050000E-6	0.900168
1.075000E-6	0.901318
1.100000E-6	0.914824
1.125000E-6	0.909019
1.150000E-6	0.905599
1.175000E-6	0.909960
1.200000E-6	0.901006
1.225000E-6	0.906332
1.250000E-6	0.902080
1.275000E-6	0.913184
1.300000E-6	0.908516
1.325000E-6	0.901451
1.350000E-6	0.906991
1.375000E-6	0.904045
1.400000E-6	0.909071
1.425000E-6	0.908701
1.450000E-6	0.902785
1.475000E-6	0.907678
1.500000E-6	0.910353
1.525000E-6	0.912069
1.550000E-6	0.900168
1.575000E-6	0.911069
1.600000E-6	0.908019
1.650000E-6	0.904761
1.700000E-6	0.905833
1.750000E-6	0.905971
1.800000E-6	0.905905
1.850000E-6	0.907615
1.900000E-6	0.907863
1.950000E-6	0.908903
2.000000E-6	0.906610
2.050000E-6	0.905183
2.100000E-6	0.903181
2.150000E-6	0.903623
2.200000E-6	0.909850
2.250000E-6	0.901457
2.300000E-6	0.907418
2.350000E-6	0.907398
2.400000E-6	0.909417
2.450000E-6	0.906407
2.500000E-6	0.905220
2.550000E-6	0.900830
2.600000E-6	0.906179
2.650000E-6	0.907407
2.700000E-6	0.909605
2.750000E-6	0.906113
2.800000E-6	0.904394
2.850000E-6	0.900570
2.900000E-6	0.906936
2.950000E-6	0.905625
3.000000E-6	0.906173
3.050000E-6	0.906690
3.100000E-6	0.907623
3.150000E-6	0.905977
3.200000E-6	0.903920
3.300000E-6	0.903262
3.400000E-6	0.905297
3.500000E-6	0.907293
3.600000E-6	0.905116
3.700000E-6	0.905589
3.800000E-6	0.906878
3.900000E-6	0.905428
4.000000E-6	0.902642
4.100000E-6	0.905001
4.200000E-6	0.904651
4.300000E-6	0.906137
4.400000E-6	0.907688
4.500000E-6	0.905802
4.600000E-6	0.905431
4.700000E-6	0.903168
4.800000E-6	0.904371
4.900000E-6	0.907231
5.000000E-6	0.909651
5.100000E-6	0.906595
5.200000E-6	0.905087
5.300000E-6	0.905486
5.400000E-6	0.905346
5.500000E-6	0.903158
5.600000E-6	0.904552
5.700000E-6	0.902911
5.800000E-6	0.903246
5.900000E-6	0.903718
6.000000E-6	0.904703
6.100000E-6	0.903214
6.200000E-6	0.903325
6.300000E-6	0.906501
6.400000E-6	0.904417
6.600000E-6	0.905978
6.800000E-6	0.903299
7.000000E-6	0.904226
7.200000E-6	0.904767
7.400000E-6	0.904129
7.600000E-6	0.903211
7.800000E-6	0.903998
8.000000E-6	0.904684
8.200000E-6	0.902651
8.400000E-6	0.904080
8.600000E-6	0.904231
8.800000E-6	0.904162
9.000000E-6	0.904512
9.200000E-6	0.904178
9.400000E-6	0.903521
9.600000E-6	0.902225
9.800000E-6	0.905340
1.000000E-5	0.905691
1.020000E-5	0.902291
1.040000E-5	0.904016
1.060000E-5	0.904274
1.080000E-5	0.902439
1.100000E-5	0.903184
1.120000E-5	0.904105
1.140000E-5	0.903317
1.160000E-5	0.903744
1.180000E-5	0.901626
1.200000E-5	0.901441
1.220000E-5	0.902532
1.240000E-5	0.901971
1.260000E-5	0.902223
1.280000E-5	0.902697
1.320000E-5	0.903434
1.360000E-5	0.903666
1.400000E-5	0.901630
1.440000E-5	0.903064
1.480000E-5	0.903061
1.520000E-5	0.904536
1.560000E-5	0.902782
1.600000E-5	0.902644
1.640000E-5	0.902816
1.680000E-5	0.903255
1.720000E-5	0.901578
1.760000E-5	0.903181
1.800000E-5	0.900964
1.840000E-5	0.901925
1.880000E-5	0.900774
1.920000E-5	0.900349
1.960000E-5	0.901747
2.000000E-5	0.900078
2.040000E-5	0.902201
2.080000E-5	0.902188
2.120000E-5	0.902136
2.160000E-5	0.901158
2.200000E-5	0.900145
2.240000E-5	0.901615
2.280000E-5	0.899795
2.320000E-5	0.900807
2.360000E-5	0.900760
2.400000E-5	0.900214
2.440000E-5	0.899721
2.480000E-5	0.898495
2.520000E-5	0.901304
2.560000E-5	0.899804
2.640000E-5	0.899257
2.720000E-5	0.899219
2.800000E-5	0.898163
2.880000E-5	0.898871
2.960000E-5	0.898350
3.040000E-5	0.899111
3.120000E-5	0.897983
3.200000E-5	0.897437
3.280000E-5	0.899112
3.360000E-5	0.897533
3.440000E-5	0.896915
3.520000E-5	0.895861
3.600000E-5	0.896958
3.680000E-5	0.896589
3.760000E-5	0.896013
3.840000E-5	0.896443
3.920000E-5	0.895489
4.000000E-5	0.897087
4.080000E-5	0.895874
4.160000E-5	0.895709
4.240000E-5	0.894679
4.320000E-5	0.894333
4.400000E-5	0.895340
4.480000E-5	0.894336
4.560000E-5	0.894917
4.640000E-5	0.893758
4.720000E-5	0.894286
4.800000E-5	0.893570
4.880000E-5	0.893301
4.960000E-5	0.892388
5.040000E-5	0.893122
5.120000E-5	0.892574
5.280000E-5	0.892347
5.440000E-5	0.892460
5.600000E-5	0.891644
5.760000E-5	0.890894
5.920000E-5	0.890857
6.080000E-5	0.889407
6.240000E-5	0.889691
6.400000E-5	0.889027
6.560000E-5	0.888992
6.720000E-5	0.888956
6.880000E-5	0.887650
7.040000E-5	0.887159
7.200000E-5	0.887128
7.360000E-5	0.886477
7.520000E-5	0.885827
7.680000E-5	0.886231
7.840000E-5	0.885321
8.000000E-5	0.884941
8.160000E-5	0.884425
8.320000E-5	0.883878
8.480000E-5	0.883555
8.640000E-5	0.883603
8.800000E-5	0.882817
8.960000E-5	0.881682
9.120000E-5	0.881706
9.280000E-5	0.881590
9.440000E-5	0.880728
9.600000E-5	0.880601
9.760000E-5	0.880274
9.920000E-5	0.879573
0.000101	0.879359
0.000102	0.878948
0.000106	0.877929
0.000109	0.876491
0.000112	0.876190
0.000115	0.874858
0.000118	0.874128
0.000122	0.873416
0.000125	0.872264
0.000128	0.871266
0.000131	0.870856
0.000134	0.869723
0.000138	0.869494
0.000141	0.867936
0.000144	0.867421
0.000147	0.866269
0.000150	0.866078
0.000154	0.864507
0.000157	0.863641
0.000160	0.862577
0.000163	0.862167
0.000166	0.861461
0.000170	0.859953
0.000173	0.859109
0.000176	0.858484
0.000179	0.856855
0.000182	0.856630
0.000186	0.856187
0.000189	0.854712
0.000192	0.853847
0.000195	0.852928
0.000198	0.852264
0.000202	0.851487
0.000205	0.850331
0.000211	0.848831
0.000218	0.846696
0.000224	0.844963
0.000230	0.843320
0.000237	0.841530
0.000243	0.840076
0.000250	0.837929
0.000256	0.836215
0.000262	0.834389
0.000269	0.832443
0.000275	0.830748
0.000282	0.829237
0.000288	0.827266
0.000294	0.825503
0.000301	0.823907
0.000307	0.821880
0.000314	0.820496
0.000320	0.818514
0.000326	0.817157
0.000333	0.815247
0.000339	0.813502
0.000346	0.811932
0.000352	0.810199
0.000358	0.808246
0.000365	0.806580
0.000371	0.804548
0.000378	0.802678
0.000384	0.800898
0.000390	0.799448
0.000397	0.797540
0.000403	0.796106
0.000410	0.794209
0.000422	0.790555
0.000435	0.787207
0.000448	0.783880
0.000461	0.780539
0.000474	0.776854
0.000486	0.773652
0.000499	0.770311
0.000512	0.766766
0.000525	0.763548
0.000538	0.760042
0.000550	0.756272
0.000563	0.753351
0.000576	0.750171
0.000589	0.746611
0.000602	0.743113
0.000614	0.740095
0.000627	0.736435
0.000640	0.733342
0.000653	0.730180
0.000666	0.726825
0.000678	0.723399
0.000691	0.719968
0.000704	0.716967
0.000717	0.713865
0.000730	0.710569
0.000742	0.706970
0.000755	0.703769
0.000768	0.700517
0.000781	0.697280
0.000794	0.694153
0.000806	0.690823
0.000819	0.687874
0.000845	0.681375
0.000870	0.675018
0.000896	0.668934
0.000922	0.662684
0.000947	0.656443
0.000973	0.650175
0.000998	0.644495
0.001024	0.638148
0.001050	0.632125
0.001075	0.626419
0.001101	0.620660
0.001126	0.614803
0.001152	0.608875
0.001178	0.603539
0.001203	0.597818
0.001229	0.592235
0.001254	0.586640
0.001280	0.580945
0.001306	0.575747
0.001331	0.570160
0.001357	0.564892
0.001382	0.559548
0.001408	0.554509
0.001434	0.549117
0.001459	0.544039
0.001485	0.538713
0.001510	0.533780
0.001536	0.528892
0.001562	0.523962
0.001587	0.519292
0.001613	0.514720
0.001638	0.509869
0.001690	0.500577
0.001741	0.491481
0.001792	0.482304
0.001843	0.473329
0.001894	0.464710
0.001946	0.455883
0.001997	0.447634
0.002048	0.439207
0.002099	0.430958
0.002150	0.422841
0.002202	0.414803
0.002253	0.406969
0.002304	0.399224
0.002355	0.391507
0.002406	0.383961
0.002458	0.376419
0.002509	0.369202
0.002560	0.362115
0.002611	0.355061
0.002662	0.348185
0.002714	0.341226
0.002765	0.334459
0.002816	0.327832
0.002867	0.321322
0.002918	0.314746
0.002970	0.308453
0.003021	0.302184
0.003072	0.296170
0.003123	0.290202
0.003174	0.284441
0.003226	0.278508
0.003277	0.272980
0.003379	0.262061
0.003482	0.251449
0.003584	0.241739
0.003686	0.231818
0.003789	0.222580
0.003891	0.213526
0.003994	0.204889
0.004096	0.196411
0.004198	0.188353
0.004301	0.180676
0.004403	0.173446
0.004506	0.166455
0.004608	0.159585
0.004710	0.152928
0.004813	0.146119
0.004915	0.139677
0.005018	0.133475
0.005120	0.127951
0.005222	0.122620
0.005325	0.117312
0.005427	0.112301
0.005530	0.107529
0.005632	0.103021
0.005734	0.098637
0.005837	0.094359
0.005939	0.090237
0.006042	0.086600
0.006144	0.083016
0.006246	0.079510
0.006349	0.076293
0.006451	0.072859
0.006554	0.069731
0.006758	0.063900
0.006963	0.058578
0.007168	0.053950
0.007373	0.049431
0.007578	0.044909
0.007782	0.040563
0.007987	0.036680
0.008192	0.032693
0.008397	0.029253
0.008602	0.026753
0.008806	0.024883
0.009011	0.023128
0.009216	0.021714
0.009421	0.020783
0.009626	0.020085
0.009830	0.019412
0.010035	0.018598
0.010240	0.018105
0.010445	0.017628
0.010650	0.016518
0.010854	0.015592
0.011059	0.015163
0.011264	0.015349
0.011469	0.015776
0.011674	0.016264
0.011878	0.015939
0.012083	0.015271
0.012288	0.015275
0.012493	0.015013
0.012698	0.014698
0.012902	0.014246
0.013107	0.013917
0.013517	0.013233
0.013926	0.013173
0.014336	0.013355
0.014746	0.012957
0.015155	0.012322
0.015565	0.011315
0.015974	0.009315
0.016384	0.008383
0.016794	0.008055
0.017203	0.007225
0.017613	0.006820
0.018022	0.007425
0.018432	0.008952
0.018842	0.010436
0.019251	0.010784
0.019661	0.009671
0.020070	0.008802
0.020480	0.008042
0.020890	0.007644
0.021299	0.007555
0.021709	0.007973
0.022118	0.008691
0.022528	0.009386
0.022938	0.008968
0.023347	0.008264
0.023757	0.007439
0.024166	0.007367
0.024576	0.007585
0.024986	0.008035
0.025395	0.008973
0.025805	0.009817
0.026214	0.008582
0.027034	0.008542
0.027853	0.009714
0.028672	0.009454
0.029491	0.005574
0.030310	0.002836
0.031130	0.000292
0.031949	-0.000413
0.032768	0.000596
0.033587	0.000426
0.034406	0.001989
0.035226	0.005897
0.036045	0.010931
0.036864	0.016320
0.037683	0.019012
0.038502	0.017675
0.039322	0.015741
0.040141	0.011192
0.040960	0.004945
0.041779	0.003250
0.042598	0.001722
0.043418	-0.000425
0.044237	-0.004765
0.045056	-0.009768
0.045875	-0.013592
0.046694	-0.013015
0.047514	-0.010933
0.048333	-0.011233
0.049152	-0.013311
0.049971	-0.014927
0.050790	-0.015009
0.051610	-0.012586
0.052429	-0.012426
0.054067	-0.009474
0.055706	-0.007946
0.057344	-0.010108
0.058982	-0.004075
0.060621	0.001885
0.062259	-0.000371
0.063898	-0.007259
0.065536	-0.015576
0.067174	-0.016665
0.068813	-0.014282
0.070451	-0.008608
0.072090	-0.003286
0.073728	-0.000364
0.075366	0.000219
0.077005	-0.001626
0.078643	-0.006417
0.080282	-0.016485
0.081920	-0.022158
0.083558	-0.021969
0.085197	-0.016179
0.086835	-0.011254
0.088474	-0.007257
0.090112	-0.001990
0.091750	0.000410
0.093389	0.000741
0.095027	-0.007991
0.096666	-0.014154
0.098304	-0.016882
0.099942	-0.013344
0.101581	-0.009719
0.103219	-0.001729
0.104858	0.005243
0.108134	0.005948
0.111411	-0.002191
0.114688	-0.002495
0.117965	0.008202
0.121242	0.009672
0.124518	0.003032
0.127795	-0.022786
0.131072	-0.024728
0.134349	-0.010122
0.137626	0.002814
0.140902	0.014881
0.144179	0.022873
0.147456	0.016814
0.150733	0.013573
0.154010	0.013617
0.157286	0.010674
0.160563	-0.002020
0.163840	-0.017347
0.167117	-0.015283
0.170394	-0.013641
0.173670	-0.003612
0.176947	0.004580
0.180224	0.010517
0.183501	0.008358
0.186778	0.007403
0.190054	0.004228
0.193331	0.007046
0.196608	-0.004276
0.199885	-0.018607
0.203162	-0.023289
0.206438	-0.019972
0.209715	-0.012394
0.216269	-0.008332
0.222822	-0.002461
0.229376	-0.011877
0.235930	-0.014095
0.242483	0.003756
0.249037	0.009860
0.255590	-0.000795
0.262144	0.004788
0.268698	-0.001211
0.275251	-0.013141
0.281805	-0.003755
0.288358	-0.009598
0.294912	-0.008672
0.301466	0.004785
0.308019	0.010211
0.314573	0.017202
0.321126	0.005847
0.327680	-0.009844
0.334234	0.007718
0.340787	0.020302
0.347341	0.021048
0.353894	-0.006869
0.360448	-0.007764
0.367002	-0.000355
0.373555	-0.006269
0.380109	-0.009056
0.386662	0.005468
0.393216	0.004939
0.399770	-0.004560
0.406323	-0.002022
0.412877	0.004220
0.419430	0.003562
0.432538	0.012585
0.445645	-0.009694
0.458752	-0.012511
0.471859	-0.009484
0.484966	-1.187769E-5
0.498074	0.004348
0.511181	0.004702
0.524288	-0.005566
0.537395	-0.000360
0.550502	0.000768
0.563610	0.005077
0.576717	-0.005624
0.589824	-0.014058
0.602931	-0.009294
0.616038	-0.001875
0.629146	0.001623
0.642253	-0.004368
0.655360	0.005708
0.668467	-0.004471
0.681574	0.010574
0.694682	0.012379
0.707789	0.001825
0.720896	-0.009180
0.734003	0.009866
0.747110	-0.006028
0.760218	-8.112691E-5
0.773325	0.000704
0.786432	-0.005008
0.799539	-0.012882
0.812646	-0.007567
0.825754	-0.003765
0.838861	-0.007095
0.865075	0.002402
0.891290	-0.002241
0.917504	0.000335
0.943718	0.001875
0.969933	-0.009945
0.996147	-5.488722E-5
1.022362	0.006876
1.048576	-0.002100
1.074790	-0.000244
1.101005	0.001700
1.127219	-0.000436
1.153434	-0.011605
1.179648	0.005635
1.205862	0.008685
1.232077	-0.003190
1.258291	-0.008356
1.284506	-0.006085
1.310720	0.003016
1.336934	0.005587
1.363149	-9.016605E-5
1.389363	-0.009727
1.415578	-0.014282
1.441792	0.004002
1.468006	0.004789
1.494221	0.004889
1.520435	0.001560
1.546650	-0.007820
1.572864	0.001691
1.599078	0.007058
1.625293	0.008355
1.651507	0.010157
1.677722	0.010912
1.730150	-0.000219
1.782579	0.002888
1.835008	-0.008650
1.887437	0.000134
1.939866	-0.004499
1.992294	0.005336
2.044723	-0.000802
2.097152	0.004247
2.149581	-0.003796
2.202010	0.004736
2.254438	-0.001626
2.306867	-0.002414
2.359296	-0.002604
2.411725	-0.003485
2.464154	0.002499
2.516582	0.004537
2.569011	-0.005044
2.621440	0.002039
2.673869	0.007597
2.726298	0.000583
2.778726	0.002083
2.831155	5.892584E-5
2.883584	-0.001568
2.936013	0.010752
2.988442	-0.002586
3.040870	-8.799908E-5
3.093299	-0.003910
3.145728	-0.008277
3.198157	-0.003977
3.250586	-0.003820
3.303015	0.001941
3.355443	0.003478
3.460301	-0.003560
3.565158	-0.000302
3.670016	0.003216
3.774873	0.001737
3.879731	-0.010389
3.984589	-0.002665
4.089447	0.004611
4.194304	-0.005752
4.299161	-0.002159
4.404019	0.001079
4.508877	0.002968
4.613734	-0.001296
4.718592	0.000236
4.823450	-0.002417
4.928307	-0.001150
5.033165	-0.005485
5.138022	0.000409
5.242880	0.001748
5.347738	-0.000592
5.452595	-0.002401
5.557453	0.002124
5.662311	-0.000758
5.767168	0.001208
5.872025	-0.000163
5.976883	-0.006071
6.081741	-0.005223
6.186598	-0.001475
6.291456	0.005878
6.396314	0.002928
6.501171	0.001512
6.606029	0.001689
6.710886	-0.001244
6.920601	0.001236
7.130317	0.002125
7.340032	0.005570
7.549747	-0.002394
7.759462	-0.000946
7.969178	0.002211
8.178893	-0.002558
8.388608	-0.000468
8.598323	0.003694
8.808039	-0.001118
9.017754	0.001968
9.227468	0.001076
9.437184	0.000272
9.646899	-0.002126
9.856614	0.001289
10.066330	0.005028
10.276045	-0.004698
10.485760	0.000380
10.695476	-0.003675
10.905190	-0.001110
11.114905	-0.001998
11.324621	-0.001509
11.534336	0.001423
11.744051	-0.000570
11.953767	-0.001826
12.163482	0.001090
12.373197	-0.008367
12.582912	0.000391
12.792627	0.000808
13.002342	0.002032
13.212058	-0.001615
13.421773	0.002035
13.841203	-0.000581
14.260633	0.002496
14.680064	0.000592
15.099494	-0.005364
15.518925	0.000125
15.938355	0.004022
16.357786	0.004283
16.777216	-0.004521
17.196646	-0.006311
17.616077	0.004288
18.035507	0.003884
18.454937	-0.003807
18.874369	-0.001222
19.293798	0.000000
19.713228	NaN
20.132660	NaN
20.552090	NaN
20.971519	NaN
21.390951	NaN
21.810381	NaN
22.229811	NaN
22.649242	NaN
23.068672	NaN
23.488102	NaN
23.907534	NaN
24.326963	NaN
24.746393	NaN
25.165825	NaN
25.585255	NaN
26.004684	NaN
26.424116	NaN
26.843546	NaN
27.682405	NaN
28.521267	NaN
29.360128	NaN
30.198988	NaN
31.037849	NaN
31.876711	NaN
32.715572	NaN
33.554432	NaN
34.393291	NaN
35.232155	NaN
36.071014	NaN
36.909874	NaN
37.748737	NaN
38.587597	NaN
39.426456	NaN
40.265320	NaN
41.104179	NaN
41.943039	NaN
42.781902	NaN
43.620762	NaN
44.459621	NaN
45.298485	NaN
46.137344	NaN
46.976204	NaN
47.815067	NaN
48.653927	NaN
49.492786	NaN
50.331650	NaN
51.170509	NaN
52.009369	NaN
52.848232	NaN
53.687092	NaN
55.364811	NaN
57.042534	NaN
58.720257	NaN
60.397976	NaN
62.075699	NaN
63.753422	NaN
65.431145	NaN
67.108864	NaN
68.786583	NaN
70.464310	NaN
72.142029	NaN
73.819748	NaN
75.497475	NaN
77.175194	NaN
78.852913	NaN
80.530640	NaN
82.208359	NaN
83.886078	NaN
85.563805	NaN
87.241524	NaN
88.919243	NaN
90.596970	NaN
92.274689	NaN
93.952408	NaN
95.630135	NaN
97.307854	NaN
98.985573	NaN
100.663300	NaN
102.341019	NaN
104.018738	NaN
105.696465	NaN
107.374184	NaN
110.729622	NaN
114.085068	NaN
117.440514	NaN
120.795952	NaN
124.151398	NaN
127.506844	NaN
130.862289	NaN
134.217728	NaN
137.573166	NaN
140.928619	NaN
144.284058	NaN
147.639496	NaN
150.994949	NaN
154.350388	NaN
157.705826	NaN
161.061279	NaN
164.416718	NaN
167.772156	NaN
171.127609	NaN
174.483047	NaN
177.838486	NaN
181.193939	NaN
184.549377	NaN
187.904816	NaN
191.260269	NaN
194.615707	NaN
197.971146	NaN
201.326599	NaN
204.682037	NaN
208.037476	NaN
211.392929	NaN
214.748367	NaN
221.459244	NaN
228.170135	NaN
234.881027	NaN
241.591904	NaN
248.302795	NaN
255.013687	NaN
261.724579	NaN
268.435455	NaN
275.146332	NaN
281.857239	NaN
288.568115	NaN
295.278992	NaN
301.989899	NaN
308.700775	NaN
315.411652	NaN
322.122559	NaN
328.833435	NaN
335.544312	NaN
342.255219	NaN
348.966095	NaN
355.676971	NaN
362.387878	NaN
369.098755	NaN
375.809631	NaN
382.520538	NaN
389.231415	NaN
395.942291	NaN
402.653198	NaN
409.364075	NaN
416.074951	NaN
422.785858	NaN
429.496735	NaN
442.918488	NaN
456.340271	NaN
469.762054	NaN
483.183807	NaN
496.605591	NaN
510.027374	NaN
523.449158	NaN
536.870911	NaN
550.292664	NaN
563.714478	NaN
577.136230	NaN
590.557983	NaN
603.979797	NaN
617.401550	NaN
630.823303	NaN
644.245117	NaN
657.666870	NaN
671.088623	NaN
684.510437	NaN
697.932190	NaN
711.353943	NaN
724.775757	NaN
738.197510	NaN
751.619263	NaN
765.041077	NaN
778.462830	NaN
791.884583	NaN
805.306396	NaN
818.728149	NaN
832.149902	NaN
845.571716	NaN
858.993469	NaN
885.836975	NaN
912.680542	NaN
939.524109	NaN
966.367615	NaN
993.211182	NaN
1020.054749	NaN
1046.898315	NaN
1073.741821	NaN
1100.585327	NaN
1127.428955	NaN
1154.272461	NaN
1181.115967	NaN
1207.959595	NaN
1234.803101	NaN
1261.646606	NaN
1288.490234	NaN
1315.333740	NaN
1342.177246	NaN
1369.020874	NaN
1395.864380	NaN
1422.707886	NaN
1449.551514	NaN
1476.395020	NaN
1503.238525	NaN
1530.082153	NaN
1556.925659	NaN
1583.769165	NaN
1610.612793	NaN
1637.456299	NaN
1664.299805	NaN
1691.143433	NaN
1717.986938	NaN
1771.673950	NaN
1825.361084	NaN
1879.048218	NaN
1932.735229	NaN
1986.422363	NaN
2040.109497	NaN
2093.796631	NaN
2147.483643	NaN
2201.170654	NaN
2254.857910	NaN
2308.544922	NaN
2362.231934	NaN
2415.919189	NaN
2469.606201	NaN
2523.293213	NaN
2576.980469	NaN
2630.667480	NaN
2684.354492	NaN
2738.041748	NaN
2791.728760	NaN
2845.415771	NaN
2899.103027	NaN
2952.790039	NaN
3006.477051	NaN
3060.164307	NaN
3113.851318	NaN
3167.538330	NaN
3221.225586	NaN
3274.912598	NaN
3328.599609	NaN
3382.286865	NaN
3435.973877	NaN
0.000000	NaN
0.000000	NaN
0.000000	NaN
0.000000	NaN
0.000000	NaN
0.000000	NaN
0.000000	NaN
0.000000	NaN
0.000000	NaN
0.000000	NaN
0.000000	NaN
0.000000	NaN
0.000000	NaN
0.000000	NaN
0.000000	NaN
0.000000	NaN
0.000000	NaN
0.000000	NaN
0.000000	NaN
0.000000	NaN
0.000000	NaN
0.000000	NaN
0.000000	NaN
0.000000	NaN
0.000000	NaN
0.000000	NaN
0.000000	NaN
0.000000	NaN
0.000000	NaN
0.000000	NaN
0.000000	NaN
0.000000	NaN

Count Rate History (KHz)  CR CHA / CR CHB
0.000000	602.397919	646.247864
0.104858	655.260086	678.749084
0.209715	478.610992	515.403748
0.314573	540.380478	553.369522
0.419430	553.464890	582.265854
0.524288	802.583694	839.710236
0.629146	337.820053	352.888107
0.734003	507.812500	535.116196
0.838861	416.231155	431.652069
0.943718	839.519501	895.757675
1.048576	386.285782	391.082764
1.153434	467.100143	511.674881
1.258291	625.333786	632.295609
1.363149	368.795395	402.030945
1.468006	460.901260	485.877991
1.572864	951.366425	977.048874
1.677722	776.090622	812.845230
1.782579	474.967957	510.225296
1.887437	706.462860	719.223022
1.992294	656.938553	682.792664
2.097152	528.497696	573.129654
2.202010	521.373749	538.883209
2.306867	535.192490	552.644730
2.411725	458.145142	515.489578
2.516582	567.083359	571.689606
2.621440	553.760529	584.974289
2.726298	594.091415	599.451065
2.831155	410.194397	427.637100
2.936013	430.269241	447.044373
3.040870	481.834412	537.157059
3.145728	398.778915	399.065018
3.250586	756.502151	786.190033
3.355443	529.842377	565.109253
3.460301	582.628250	625.228882
3.565158	723.524094	736.532211
3.670016	718.841553	751.333237
3.774874	530.862808	569.562912
3.879731	546.398163	583.724976
3.984589	487.775803	489.368439
4.089446	583.324432	632.171631
4.194304	510.120392	515.298843
4.299162	457.639694	478.572845
4.404019	527.858734	563.325882
4.508877	728.511810	792.455673
4.613734	661.392212	663.948059
4.718592	567.474365	603.828430
4.823450	588.045120	627.822876
4.928307	549.306870	573.549271
5.033165	1025.915146	1066.331863
5.138022	493.230820	520.038605
5.242880	598.802567	614.681244
5.347738	719.671249	752.239227
5.452595	543.947220	600.004196
5.557453	603.313446	632.247925
5.662310	672.044754	689.868927
5.767168	509.309769	533.905029
5.872026	465.946198	478.067398
5.976883	506.992340	521.545410
6.081741	875.892639	943.317413
6.186598	629.577637	631.055832
6.291456	546.808243	577.239990
6.396314	527.830124	546.894073
6.501171	527.467728	560.312271
6.606029	494.413376	518.121719
6.710886	461.454391	481.491089
6.815744	756.473541	789.947510
6.920602	559.501648	578.746796
7.025459	592.775345	621.862411
7.130317	493.335724	515.975952
7.235174	588.798523	634.908676
7.340032	683.498383	696.649551
7.444890	456.533432	494.680405
7.549747	573.196411	598.573685
7.654605	572.328568	602.483749
7.759462	574.712753	628.070831
7.864320	658.264160	645.999908
7.969178	704.126358	750.131607
8.074035	497.779846	528.650284
8.178893	599.365234	612.716675
8.283750	708.904266	782.928467
8.388608	657.730103	646.009445
8.493466	487.527847	504.255295
8.598323	406.341553	424.118042
8.703181	561.389923	629.329681
8.808038	609.998703	644.788742
8.912896	534.152985	537.128448
9.017754	738.105774	794.887543
9.122611	575.618744	585.222244
9.227469	577.850342	578.899384
9.332326	532.999039	556.621552
9.437184	501.918793	542.764664
9.542042	472.421646	478.963852
9.646899	423.383713	462.617874
9.751757	561.370850	559.329987
9.856614	519.418716	560.569763
9.961472	499.734879	506.753922
10.066330	496.778488	538.024902
10.171187	606.851578	621.366501
10.276045	642.442703	678.110123
10.380902	567.846298	582.523346
10.485760	581.703186	619.592667
10.590618	631.732941	647.678375
10.695475	429.105759	448.102951
10.800333	675.134659	726.556778
10.905190	980.949402	1020.841599
11.010048	496.540070	505.199432
11.114906	379.838943	409.173965
11.219763	552.949905	560.941696
11.324621	492.315292	524.692535
11.429478	491.104126	497.446060
11.534336	694.942474	729.866028
11.639194	596.437454	683.546066
11.744051	550.794601	538.988113
11.848909	773.305893	792.350769
11.953766	671.300888	714.073181
12.058624	479.812622	515.766144
12.163482	588.274002	607.576370
12.268339	571.823120	596.847534
12.373197	525.741577	612.335205
12.478054	763.463974	777.406693
12.582912	612.592697	617.465973
12.687770	533.475876	558.423996
12.792627	469.160080	486.278534
12.897485	561.981201	594.472885
13.002342	923.652649	980.510712
13.107200	569.686890	571.031570
13.212058	440.082550	459.251404
13.316915	816.097260	851.955414
13.421773	640.401840	675.792694
13.526630	657.339096	697.975159
13.631488	658.874512	671.443939
13.736346	543.422699	629.272461
13.841203	581.741333	574.655533
13.946061	532.836914	537.996292
14.050918	420.732498	434.951782
14.155776	601.863861	661.134720
14.260634	552.768707	558.958054
14.365491	497.217178	522.203445
14.470349	488.920212	515.642166
14.575206	776.576996	847.415924
14.680064	893.964767	895.586014
14.784922	525.913239	529.012680
14.889779	627.031326	719.690323
14.994637	399.723053	434.560776
15.099494	589.408875	556.917191
15.204352	649.557114	682.973862
15.309210	646.667480	677.156448
15.414067	659.160614	681.562424
15.518925	536.203384	563.936234
15.623782	672.483444	711.212158
15.728640	606.374741	616.903305
15.833498	482.406616	515.041351
15.938355	686.292648	716.524124
16.043213	532.407761	545.902252
16.148070	574.655533	620.908737
16.252928	560.493469	581.493378
16.357786	437.927246	454.101562
16.462643	414.524078	441.370010
16.567501	500.354767	516.843796
16.672358	533.180237	561.332703
16.777216	407.962799	432.062149
16.882074	598.754883	620.155334
16.986931	413.570404	427.970886
17.091789	737.257004	786.094666
17.196646	505.323410	526.504517
17.301504	503.396988	518.045425
17.406362	675.268173	726.194382
17.511219	554.265976	589.160919
17.616077	513.153076	517.959595
17.720934	512.027740	539.808273
17.825792	463.724136	510.644913
17.930650	810.441971	835.094452
18.035507	588.970184	624.103546
18.140365	544.681549	612.316132
18.245222	854.320526	842.437744
18.350080	564.947128	579.462051
18.454938	392.045975	418.367386
18.559795	373.220444	406.713486
18.664653	471.076965	481.624603
18.769510	485.534668	506.391525
18.874368	567.350388	585.670471
18.979226	509.090424	530.576706
19.084083	568.437576	633.211136
19.188941	459.899902	448.694229
19.293798	535.860062	568.084717
19.398656	399.761200	402.450562
19.503514	621.137619	690.221786
19.608371	897.569656	907.135010
19.713229	579.166412	626.420975
19.818086	678.253174	688.781738
