1/9/2026	11:42 AM
Pseudo Cross Correlation
Scattering angle:	130.0
Duration (s):	20
Wavelength (nm):	632.8
Refractive index:	1.330
Viscosity (mPas):	0.741
Temperature (K):	306.7
Laser intensity (mW):	8.540895
Average Count rate  A (kHz):	107.6
Average Count rate  B (kHz):	108.8
Intercept:	0.8436
Cumulant 1st	66.72
Cumulant 2nd	65.64	9.05
Cumulant 3rd	65.77	7.44

Lag time (s)         g2-1
1.250000E-8	0.815972
2.500000E-8	0.862436
3.750000E-8	0.827940
5.000000E-8	0.849764
6.250000E-8	0.811748
7.500000E-8	0.822308
8.750000E-8	0.874052
1.000000E-7	0.854340
1.125000E-7	0.826532
1.250000E-7	0.821956
1.375000E-7	0.850116
1.500000E-7	0.827588
1.625000E-7	0.845892
1.750000E-7	0.815620
1.875000E-7	0.842020
2.000000E-7	0.845188
2.125000E-7	0.845540
2.250000E-7	0.915236
2.375000E-7	0.869828
2.500000E-7	0.856804
2.625000E-7	0.827940
2.750000E-7	0.828292
2.875000E-7	0.824420
3.000000E-7	0.843076
3.125000E-7	0.820196
3.250000E-7	0.814916
3.375000E-7	0.845892
3.500000E-7	0.867716
3.625000E-7	0.807524
3.750000E-7	0.833572
3.875000E-7	0.849764
4.000000E-7	0.852932
4.125000E-7	0.825828
4.250000E-7	0.784644
4.375000E-7	0.920164
4.500000E-7	0.871236
4.625000E-7	0.858564
4.750000E-7	0.843428
4.875000E-7	0.853988
5.000000E-7	0.796260
5.125000E-7	0.798724
5.250000E-7	0.835684
5.375000E-7	0.830052
5.500000E-7	0.882148
5.625000E-7	0.848708
5.750000E-7	0.832868
5.875000E-7	0.795556
6.000000E-7	0.800132
6.125000E-7	0.803300
6.250000E-7	0.810340
6.375000E-7	0.884964
6.500000E-7	0.838852
6.625000E-7	0.824420
6.750000E-7	0.849060
6.875000E-7	0.807172
7.000000E-7	0.812100
7.125000E-7	0.832868
7.250000E-7	0.824068
7.375000E-7	0.849764
7.500000E-7	0.851524
7.625000E-7	0.851524
7.750000E-7	0.865956
7.875000E-7	0.838852
8.000000E-7	0.869476
8.250000E-7	0.846068
8.500000E-7	0.868420
8.750000E-7	0.859972
9.000000E-7	0.810868
9.250000E-7	0.825828
9.500000E-7	0.848004
9.750000E-7	0.855924
1.000000E-6	0.863668
1.025000E-6	0.825652
1.050000E-6	0.831108
1.075000E-6	0.849236
1.100000E-6	0.848004
1.125000E-6	0.872468
1.150000E-6	0.833924
1.175000E-6	0.871412
1.200000E-6	0.853988
1.225000E-6	0.835860
1.250000E-6	0.851524
1.275000E-6	0.843252
1.300000E-6	0.811748
1.325000E-6	0.863140
1.350000E-6	0.859268
1.375000E-6	0.786052
1.400000E-6	0.801188
1.425000E-6	0.845188
1.450000E-6	0.836916
1.475000E-6	0.854340
1.500000E-6	0.847124
1.525000E-6	0.878804
1.550000E-6	0.811572
1.575000E-6	0.854868
1.600000E-6	0.838148
1.650000E-6	0.855748
1.700000E-6	0.837268
1.750000E-6	0.845364
1.800000E-6	0.860060
1.850000E-6	0.817732
1.900000E-6	0.841140
1.950000E-6	0.820284
2.000000E-6	0.824244
2.050000E-6	0.845276
2.100000E-6	0.830932
2.150000E-6	0.867452
2.200000E-6	0.818436
2.250000E-6	0.833660
2.300000E-6	0.825300
2.350000E-6	0.832164
2.400000E-6	0.823540
2.450000E-6	0.843340
2.500000E-6	0.850996
2.550000E-6	0.849852
2.600000E-6	0.832340
2.650000E-6	0.838940
2.700000E-6	0.827500
2.750000E-6	0.833308
2.800000E-6	0.820636
2.850000E-6	0.823540
2.900000E-6	0.837004
2.950000E-6	0.811308
3.000000E-6	0.836916
3.050000E-6	0.812980
3.100000E-6	0.840084
3.150000E-6	0.832692
3.200000E-6	0.846244
3.300000E-6	0.825696
3.400000E-6	0.834012
3.500000E-6	0.824640
3.600000E-6	0.836652
3.700000E-6	0.832076
3.800000E-6	0.826576
3.900000E-6	0.823320
4.000000E-6	0.832032
4.100000E-6	0.824244
4.200000E-6	0.827236
4.300000E-6	0.821208
4.400000E-6	0.821384
4.500000E-6	0.811704
4.600000E-6	0.831592
4.700000E-6	0.818128
4.800000E-6	0.820988
4.900000E-6	0.826444
5.000000E-6	0.813112
5.100000E-6	0.820416
5.200000E-6	0.828292
5.300000E-6	0.822660
5.400000E-6	0.816280
5.500000E-6	0.822924
5.600000E-6	0.815180
5.700000E-6	0.837444
5.800000E-6	0.811132
5.900000E-6	0.805192
6.000000E-6	0.827500
6.100000E-6	0.810340
6.200000E-6	0.811836
6.300000E-6	0.810164
6.400000E-6	0.827192
6.600000E-6	0.820350
6.800000E-6	0.799362
7.000000E-6	0.800968
7.200000E-6	0.821362
7.400000E-6	0.801826
7.600000E-6	0.795842
7.800000E-6	0.807700
8.000000E-6	0.806380
8.200000E-6	0.818304
8.400000E-6	0.808668
8.600000E-6	0.807590
8.800000E-6	0.800286
9.000000E-6	0.815752
9.200000E-6	0.808888
9.400000E-6	0.807964
9.600000E-6	0.804158
9.800000E-6	0.793180
1.000000E-5	0.802640
1.020000E-5	0.806732
1.040000E-5	0.798152
1.060000E-5	0.800572
1.080000E-5	0.797998
1.100000E-5	0.796304
1.120000E-5	0.801386
1.140000E-5	0.791860
1.160000E-5	0.799538
1.180000E-5	0.790276
1.200000E-5	0.785678
1.220000E-5	0.779144
1.240000E-5	0.794038
1.260000E-5	0.783214
1.280000E-5	0.781300
1.320000E-5	0.784974
1.360000E-5	0.788615
1.400000E-5	0.786294
1.440000E-5	0.778132
1.480000E-5	0.766043
1.520000E-5	0.784985
1.560000E-5	0.778902
1.600000E-5	0.778924
1.640000E-5	0.772687
1.680000E-5	0.769673
1.720000E-5	0.779210
1.760000E-5	0.760290
1.800000E-5	0.768617
1.840000E-5	0.762072
1.880000E-5	0.768716
1.920000E-5	0.755582
1.960000E-5	0.754064
2.000000E-5	0.753833
2.040000E-5	0.758420
2.080000E-5	0.751358
2.120000E-5	0.748795
2.160000E-5	0.755197
2.200000E-5	0.753701
2.240000E-5	0.751996
2.280000E-5	0.740919
2.320000E-5	0.739940
2.360000E-5	0.743009
2.400000E-5	0.738070
2.440000E-5	0.741128
2.480000E-5	0.738950
2.520000E-5	0.735133
2.560000E-5	0.736464
2.640000E-5	0.731756
2.720000E-5	0.733697
2.800000E-5	0.726619
2.880000E-5	0.725299
2.960000E-5	0.727136
3.040000E-5	0.718688
3.120000E-5	0.714541
3.200000E-5	0.708381
3.280000E-5	0.707682
3.360000E-5	0.701423
3.440000E-5	0.704349
3.520000E-5	0.702716
3.600000E-5	0.698816
3.680000E-5	0.694240
3.760000E-5	0.693938
3.840000E-5	0.685930
3.920000E-5	0.683312
4.000000E-5	0.680655
4.080000E-5	0.680303
4.160000E-5	0.675524
4.240000E-5	0.673522
4.320000E-5	0.676074
4.400000E-5	0.667444
4.480000E-5	0.668951
4.560000E-5	0.663215
4.640000E-5	0.663699
4.720000E-5	0.662368
4.800000E-5	0.657627
4.880000E-5	0.654173
4.960000E-5	0.645703
5.040000E-5	0.644680
5.120000E-5	0.644498
5.280000E-5	0.639071
5.440000E-5	0.633825
5.600000E-5	0.630042
5.760000E-5	0.619534
5.920000E-5	0.617123
6.080000E-5	0.612058
6.240000E-5	0.604974
6.400000E-5	0.600673
6.560000E-5	0.596348
6.720000E-5	0.594255
6.880000E-5	0.587801
7.040000E-5	0.586828
7.200000E-5	0.574066
7.360000E-5	0.571456
7.520000E-5	0.566737
7.680000E-5	0.559888
7.840000E-5	0.560985
8.000000E-5	0.551569
8.160000E-5	0.548799
8.320000E-5	0.545026
8.480000E-5	0.539785
8.640000E-5	0.534192
8.800000E-5	0.531137
8.960000E-5	0.523094
9.120000E-5	0.521669
9.280000E-5	0.520641
9.440000E-5	0.512609
9.600000E-5	0.507598
9.760000E-5	0.503847
9.920000E-5	0.503998
0.000101	0.494547
0.000102	0.494297
0.000106	0.482479
0.000109	0.474765
0.000112	0.468325
0.000115	0.460758
0.000118	0.454773
0.000122	0.446497
0.000125	0.440387
0.000128	0.433047
0.000131	0.427223
0.000134	0.417140
0.000138	0.410327
0.000141	0.402512
0.000144	0.398686
0.000147	0.390386
0.000150	0.385007
0.000154	0.373347
0.000157	0.369518
0.000160	0.365896
0.000163	0.355625
0.000166	0.351773
0.000170	0.347485
0.000173	0.340477
0.000176	0.336822
0.000179	0.326302
0.000182	0.322083
0.000186	0.320450
0.000189	0.312637
0.000192	0.307234
0.000195	0.305175
0.000198	0.298006
0.000202	0.294000
0.000205	0.288689
0.000211	0.280120
0.000218	0.270585
0.000224	0.262096
0.000230	0.252404
0.000237	0.244224
0.000243	0.237019
0.000250	0.228886
0.000256	0.221391
0.000262	0.214934
0.000269	0.208359
0.000275	0.200524
0.000282	0.193617
0.000288	0.186746
0.000294	0.180754
0.000301	0.176161
0.000307	0.172090
0.000314	0.163727
0.000320	0.160377
0.000326	0.154983
0.000333	0.148854
0.000339	0.145444
0.000346	0.139163
0.000352	0.134275
0.000358	0.130452
0.000365	0.126168
0.000371	0.122910
0.000378	0.117848
0.000384	0.114834
0.000390	0.112690
0.000397	0.108009
0.000403	0.104556
0.000410	0.101241
0.000422	0.094829
0.000435	0.089070
0.000448	0.083456
0.000461	0.077804
0.000474	0.073735
0.000486	0.068776
0.000499	0.065491
0.000512	0.061027
0.000525	0.058536
0.000538	0.056187
0.000550	0.052947
0.000563	0.050773
0.000576	0.048978
0.000589	0.045755
0.000602	0.042871
0.000614	0.041724
0.000627	0.037725
0.000640	0.035974
0.000653	0.034800
0.000666	0.032616
0.000678	0.031202
0.000691	0.028693
0.000704	0.027222
0.000717	0.025512
0.000730	0.024318
0.000742	0.023289
0.000755	0.021343
0.000768	0.020506
0.000781	0.019749
0.000794	0.017746
0.000806	0.015912
0.000819	0.014232
0.000845	0.013041
0.000870	0.010853
0.000896	0.008908
0.000922	0.008097
0.000947	0.006455
0.000973	0.007259
0.000998	0.005509
0.001024	0.005630
0.001050	0.005932
0.001075	0.005839
0.001101	0.004130
0.001126	0.003989
0.001152	0.003951
0.001178	0.003838
0.001203	0.003570
0.001229	0.004182
0.001254	0.003717
0.001280	0.002928
0.001306	0.003489
0.001331	0.004124
0.001357	0.003887
0.001382	0.004420
0.001408	0.003083
0.001434	0.003541
0.001459	0.002056
0.001485	0.001688
0.001510	0.000143
0.001536	-0.000244
0.001562	-5.092117E-5
0.001587	-0.000444
0.001613	-0.000142
0.001638	-0.000724
0.001690	7.374634E-5
0.001741	0.000168
0.001792	3.835344E-5
0.001843	0.001529
0.001894	0.000821
0.001946	0.001135
0.001997	0.002273
0.002048	0.002605
0.002099	0.002441
0.002150	0.001669
0.002202	0.002136
0.002253	0.002562
0.002304	0.003229
0.002355	0.003244
0.002406	0.003070
0.002458	0.003445
0.002509	0.001920
0.002560	-0.000411
0.002611	-0.000844
0.002662	-0.002190
0.002714	-0.002815
0.002765	-0.004047
0.002816	-0.002813
0.002867	-0.002759
0.002918	-0.001824
0.002970	-0.001021
0.003021	0.000333
0.003072	0.001588
0.003123	0.001785
0.003174	0.002323
0.003226	0.003946
0.003277	0.005642
0.003379	0.007242
0.003482	0.006373
0.003584	0.006283
0.003686	0.005186
0.003789	0.002683
0.003891	0.001585
0.003994	0.001807
0.004096	0.000862
0.004198	0.001823
0.004301	0.003103
0.004403	0.003257
0.004506	0.004396
0.004608	0.004269
0.004710	0.004052
0.004813	0.003965
0.004915	0.003225
0.005018	0.002245
0.005120	0.000464
0.005222	0.000634
0.005325	0.002174
0.005427	0.002565
0.005530	0.002692
0.005632	0.002129
0.005734	0.001077
0.005837	0.001654
0.005939	0.001899
0.006042	0.002022
0.006144	0.001029
0.006246	0.001614
0.006349	0.002856
0.006451	0.002853
0.006554	0.002412
0.006758	0.003634
0.006963	0.005388
0.007168	0.003941
0.007373	0.002466
0.007578	0.001051
0.007782	-0.001347
0.007987	-0.004213
0.008192	-0.003865
0.008397	-0.002345
0.008602	0.001482
0.008806	0.007254
0.009011	0.008688
0.009216	0.003579
0.009421	-0.000258
0.009626	-0.000242
0.009830	-0.001731
0.010035	-0.000888
0.010240	-0.000374
0.010445	-0.000842
0.010650	-0.002283
0.010854	-0.001978
0.011059	-0.001881
0.011264	0.001217
0.011469	0.000650
0.011674	-0.000785
0.011878	-0.000707
0.012083	-0.001034
0.012288	-0.001545
0.012493	-0.000935
0.012698	0.001604
0.012902	0.000539
0.013107	-0.001128
0.013517	0.004376
0.013926	0.006911
0.014336	0.006983
0.014746	0.002768
0.015155	-0.003558
0.015565	-0.003064
0.015974	-0.000265
0.016384	-0.003763
0.016794	-0.000668
0.017203	-0.001074
0.017613	0.000582
0.018022	0.002516
0.018432	0.003690
0.018842	0.004341
0.019251	0.001327
0.019661	0.000761
0.020070	-0.000441
0.020480	-0.000189
0.020890	-0.001281
0.021299	0.002820
0.021709	0.003220
0.022118	0.001419
0.022528	-0.000754
0.022938	0.001766
0.023347	0.002227
0.023757	0.002292
0.024166	0.001982
0.024576	0.006491
0.024986	0.002692
0.025395	-0.002613
0.025805	-0.003035
0.026214	0.000203
0.027034	-0.000493
0.027853	0.002611
0.028672	0.001538
0.029491	0.002407
0.030310	0.003166
0.031130	0.001678
0.031949	-7.974736E-5
0.032768	-0.000719
0.033587	0.001772
0.034406	-0.000176
0.035226	-0.003178
0.036045	-0.000273
0.036864	0.000354
0.037683	0.000311
0.038502	-0.000384
0.039322	-5.772172E-5
0.040141	0.003837
0.040960	-0.000290
0.041779	0.001292
0.042598	0.000880
0.043418	-7.715282E-5
0.044237	-0.003508
0.045056	0.000503
0.045875	0.000367
0.046694	0.000852
0.047514	-0.000529
0.048333	-0.000661
0.049152	-0.001668
0.049971	0.002163
0.050790	0.001238
0.051610	-0.001476
0.052429	-0.001972
0.054067	0.000926
0.055706	-0.001094
0.057344	0.002017
0.058982	0.000993
0.060621	0.000267
0.062259	-0.000476
0.063898	-0.000326
0.065536	-0.002255
0.067174	-0.001563
0.068813	0.001978
0.070451	-0.001465
0.072090	0.002909
0.073728	0.002343
0.075366	0.003069
0.077005	-0.002005
0.078643	-0.001659
0.080282	0.001088
0.081920	0.001034
0.083558	0.001193
0.085197	-0.001834
0.086835	0.002393
0.088474	-0.001988
0.090112	0.000147
0.091750	0.001350
0.093389	-0.001128
0.095027	-0.000489
0.096666	-0.001516
0.098304	0.001504
0.099942	0.003472
0.101581	0.001713
0.103219	-0.001354
0.104858	-9.064335E-5
0.108134	-0.000659
0.111411	-0.002375
0.114688	0.003708
0.117965	0.000443
0.121242	0.000726
0.124518	-0.000696
0.127795	-0.001022
0.131072	0.000205
0.134349	-0.000774
0.137626	-0.000915
0.140902	-0.001672
0.144179	0.001177
0.147456	-0.000145
0.150733	-0.000524
0.154010	7.445752E-5
0.157286	0.001026
0.160563	0.000640
0.163840	0.000346
0.167117	0.000703
0.170394	0.002717
0.173670	0.001210
0.176947	0.001020
0.180224	2.674854E-5
0.183501	-0.001664
0.186778	-0.000604
0.190054	-0.001151
0.193331	0.002158
0.196608	-0.000104
0.199885	0.000527
0.203162	0.001653
0.206438	-0.000636
0.209715	0.001448
0.216269	0.000297
0.222822	0.000125
0.229376	-0.001927
0.235930	-0.001006
0.242483	0.000197
0.249037	-0.000641
0.255590	0.000295
0.262144	-0.000793
0.268698	0.000534
0.275251	0.000459
0.281805	0.000178
0.288358	0.002416
0.294912	0.000389
0.301466	0.000970
0.308019	-0.000903
0.314573	0.000555
0.321126	0.002023
0.327680	0.000161
0.334234	0.000860
0.340787	0.001881
0.347341	-0.000323
0.353894	-0.000155
0.360448	-0.000938
0.367002	-0.000670
0.373555	-0.000209
0.380109	-0.000670
0.386662	0.001089
0.393216	-0.002399
0.399770	0.000602
0.406323	-8.911487E-5
0.412877	0.001212
0.419430	2.144837E-5
0.432538	-0.000150
0.445645	-0.000663
0.458752	0.000320
0.471859	-8.553547E-5
0.484966	0.000167
0.498074	0.000194
0.511181	5.164147E-5
0.524288	0.000603
0.537395	0.000184
0.550502	0.000476
0.563610	-0.000335
0.576717	0.000690
0.589824	0.000257
0.602931	3.835874E-5
0.616038	0.000151
0.629146	0.001000
0.642253	0.000491
0.655360	0.000105
0.668467	-0.000157
0.681574	-0.000328
0.694682	-0.000164
0.707789	0.000313
0.720896	0.000193
0.734003	-0.000164
0.747110	-0.000309
0.760218	-0.000514
0.773325	-0.000876
0.786432	0.000398
0.799539	0.000852
0.812646	-0.001275
0.825754	0.000781
0.838861	0.000228
0.865075	3.296449E-5
0.891290	0.000150
0.917504	-0.000441
0.943718	3.937042E-5
0.969933	-0.000213
0.996147	-0.000633
1.022362	-0.000335
1.048576	-0.000288
1.074790	-0.000649
1.101005	-0.000846
1.127219	-6.964236E-5
1.153434	8.674838E-6
1.179648	-0.000103
1.205862	0.000174
1.232077	0.000109
1.258291	-0.000190
1.284506	3.524894E-5
1.310720	-0.000145
1.336934	0.000349
1.363149	0.000445
1.389363	0.000358
1.415578	-0.001391
1.441792	0.000381
1.468006	0.000260
1.494221	-0.000740
1.520435	0.000448
1.546650	0.000313
1.572864	-0.000667
1.599078	-0.000583
1.625293	-0.000794
1.651507	-0.000133
1.677722	-0.000600
1.730150	-0.000349
1.782579	0.000420
1.835008	0.000482
1.887437	-0.000123
1.939866	9.812425E-5
1.992294	0.000525
2.044723	0.000713
2.097152	0.000367
2.149581	0.000172
2.202010	2.745671E-5
2.254438	-0.000205
2.306867	0.000216
2.359296	-0.000187
2.411725	0.000147
2.464154	-2.178107E-5
2.516582	0.000112
2.569011	0.000425
2.621440	7.958067E-5
2.673869	-0.000590
2.726298	-0.000269
2.778726	-0.000157
2.831155	-0.000625
2.883584	-0.000588
2.936013	-0.000392
2.988442	-0.000305
3.040870	-0.000784
3.093299	3.036839E-5
3.145728	-0.000169
3.198157	-0.000277
3.250586	-4.162265E-5
3.303015	-3.800085E-5
3.355443	0.000607
3.460301	-0.000264
3.565158	-3.006677E-5
3.670016	-0.000140
3.774873	0.000457
3.879731	0.000154
3.984589	-0.000161
4.089447	0.000384
4.194304	-0.000680
4.299161	-2.529965E-6
4.404019	-0.000354
4.508877	-1.564730E-5
4.613734	0.000471
4.718592	5.969597E-5
4.823450	-0.000691
4.928307	-0.000342
5.033165	-0.000431
5.138022	0.000401
5.242880	0.000153
5.347738	-0.000507
5.452595	-0.000576
5.557453	0.000534
5.662311	0.000538
5.767168	0.000645
5.872025	0.000466
5.976883	-0.000154
6.081741	0.000279
6.186598	-5.247341E-5
6.291456	-0.000206
6.396314	-0.000279
6.501171	6.878167E-5
6.606029	0.000165
6.710886	-0.000469
6.920601	0.000122
7.130317	7.976698E-5
7.340032	-0.000258
7.549747	0.000139
7.759462	0.000141
7.969178	2.889270E-5
8.178893	-0.000120
8.388608	0.000213
8.598323	-0.000555
8.808039	-0.000475
9.017754	4.336435E-5
9.227468	2.025763E-6
9.437184	0.000100
9.646899	-0.000227
9.856614	-0.000192
10.066330	-0.000611
10.276045	0.000217
10.485760	-0.000215
10.695476	4.690146E-5
10.905190	-4.465377E-6
11.114905	-0.000247
11.324621	0.000381
11.534336	0.000338
11.744051	0.000164
11.953767	-1.499897E-5
12.163482	-0.000115
12.373197	3.279706E-5
12.582912	0.000234
12.792627	0.000347
13.002342	0.000242
13.212058	0.000495
13.421773	4.273521E-5
13.841203	0.000364
14.260633	-0.000147
14.680064	-0.000392
15.099494	-0.000184
15.518925	-0.000872
15.938355	-8.824662E-5
16.357786	0.000409
16.777216	0.001428
17.196646	0.000421
17.616077	-0.000715
18.035507	-0.002304
18.454937	0.000000
18.874369	NaN
19.293798	NaN
19.713228	NaN
20.132660	NaN
20.552090	NaN
20.971519	NaN
21.390951	NaN
21.810381	NaN
22.229811	NaN
22.649242	NaN
23.068672	NaN
23.488102	NaN
23.907534	NaN
24.326963	NaN
24.746393	NaN
25.165825	NaN
25.585255	NaN
26.004684	NaN
26.424116	NaN
26.843546	NaN
27.682405	NaN
28.521267	NaN
29.360128	NaN
30.198988	NaN
31.037849	NaN
31.876711	NaN
32.715572	NaN
33.554432	NaN
34.393291	NaN
35.232155	NaN
36.071014	NaN
36.909874	NaN
37.748737	NaN
38.587597	NaN
39.426456	NaN
40.265320	NaN
41.104179	NaN
41.943039	NaN
42.781902	NaN
43.620762	NaN
44.459621	NaN
45.298485	NaN
46.137344	NaN
46.976204	NaN
47.815067	NaN
48.653927	NaN
49.492786	NaN
50.331650	NaN
51.170509	NaN
52.009369	NaN
52.848232	NaN
53.687092	NaN
55.364811	NaN
57.042534	NaN
58.720257	NaN
60.397976	NaN
62.075699	NaN
63.753422	NaN
65.431145	NaN
67.108864	NaN
68.786583	NaN
70.464310	NaN
72.142029	NaN
73.819748	NaN
75.497475	NaN
77.175194	NaN
78.852913	NaN
80.530640	NaN
82.208359	NaN
83.886078	NaN
85.563805	NaN
87.241524	NaN
88.919243	NaN
90.596970	NaN
92.274689	NaN
93.952408	NaN
95.630135	NaN
97.307854	NaN
98.985573	NaN
100.663300	NaN
102.341019	NaN
104.018738	NaN
105.696465	NaN
107.374184	NaN
110.729622	NaN
114.085068	NaN
117.440514	NaN
120.795952	NaN
124.151398	NaN
127.506844	NaN
130.862289	NaN
134.217728	NaN
137.573166	NaN
140.928619	NaN
144.284058	NaN
147.639496	NaN
150.994949	NaN
154.350388	NaN
157.705826	NaN
161.061279	NaN
164.416718	NaN
167.772156	NaN
171.127609	NaN
174.483047	NaN
177.838486	NaN
181.193939	NaN
184.549377	NaN
187.904816	NaN
191.260269	NaN
194.615707	NaN
197.971146	NaN
201.326599	NaN
204.682037	NaN
208.037476	NaN
211.392929	NaN
214.748367	NaN
221.459244	NaN
228.170135	NaN
234.881027	NaN
241.591904	NaN
248.302795	NaN
255.013687	NaN
261.724579	NaN
268.435455	NaN
275.146332	NaN
281.857239	NaN
288.568115	NaN
295.278992	NaN
301.989899	NaN
308.700775	NaN
315.411652	NaN
322.122559	NaN
328.833435	NaN
335.544312	NaN
342.255219	NaN
348.966095	NaN
355.676971	NaN
362.387878	NaN
369.098755	NaN
375.809631	NaN
382.520538	NaN
389.231415	NaN
395.942291	NaN
402.653198	NaN
409.364075	NaN
416.074951	NaN
422.785858	NaN
429.496735	NaN
442.918488	NaN
456.340271	NaN
469.762054	NaN
483.183807	NaN
496.605591	NaN
510.027374	NaN
523.449158	NaN
536.870911	NaN
550.292664	NaN
563.714478	NaN
577.136230	NaN
590.557983	NaN
603.979797	NaN
617.401550	NaN
630.823303	NaN
644.245117	NaN
657.666870	NaN
671.088623	NaN
684.510437	NaN
697.932190	NaN
711.353943	NaN
724.775757	NaN
738.197510	NaN
751.619263	NaN
765.041077	NaN
778.462830	NaN
791.884583	NaN
805.306396	NaN
818.728149	NaN
832.149902	NaN
845.571716	NaN
858.993469	NaN
885.836975	NaN
912.680542	NaN
939.524109	NaN
966.367615	NaN
993.211182	NaN
1020.054749	NaN
1046.898315	NaN
1073.741821	NaN
1100.585327	NaN
1127.428955	NaN
1154.272461	NaN
1181.115967	NaN
1207.959595	NaN
1234.803101	NaN
1261.646606	NaN
1288.490234	NaN
1315.333740	NaN
1342.177246	NaN
1369.020874	NaN
1395.864380	NaN
1422.707886	NaN
1449.551514	NaN
1476.395020	NaN
1503.238525	NaN
1530.082153	NaN
1556.925659	NaN
1583.769165	NaN
1610.612793	NaN
1637.456299	NaN
1664.299805	NaN
1691.143433	NaN
1717.986938	NaN
1771.673950	NaN
1825.361084	NaN
1879.048218	NaN
1932.735229	NaN
1986.422363	NaN
2040.109497	NaN
2093.796631	NaN
2147.483643	NaN
2201.170654	NaN
2254.857910	NaN
2308.544922	NaN
2362.231934	NaN
2415.919189	NaN
2469.606201	NaN
2523.293213	NaN
2576.980469	NaN
2630.667480	NaN
2684.354492	NaN
2738.041748	NaN
2791.728760	NaN
2845.415771	NaN
2899.103027	NaN
2952.790039	NaN
3006.477051	NaN
3060.164307	NaN
3113.851318	NaN
3167.538330	NaN
3221.225586	NaN
3274.912598	NaN
3328.599609	NaN
3382.286865	NaN
3435.973877	NaN
0.000000	NaN
0.000000	NaN
0.000000	NaN
0.000000	NaN
0.000000	NaN
0.000000	NaN
0.000000	NaN
0.000000	NaN
0.000000	NaN
0.000000	NaN
0.000000	NaN
0.000000	NaN
0.000000	NaN
0.000000	NaN
0.000000	NaN
0.000000	NaN
0.000000	NaN
0.000000	NaN
0.000000	NaN
0.000000	NaN
0.000000	NaN
0.000000	NaN
0.000000	NaN
0.000000	NaN
0.000000	NaN
0.000000	NaN
0.000000	NaN
0.000000	NaN
0.000000	NaN
0.000000	NaN
0.000000	NaN
0.000000	NaN

Count Rate History (KHz)  CR CHA / CR CHB
0.000000	117.120743	118.045807
0.104858	107.364655	107.154846
0.209715	115.585327	119.762421
0.314573	114.831924	113.935471
0.419430	88.043213	87.289810
0.524288	115.976334	122.308731
0.629146	108.070374	105.581284
0.734003	101.385117	99.916458
0.838861	105.781555	107.889175
0.943718	98.381042	101.785660
1.048576	102.386475	105.733871
1.153434	107.212067	108.270645
1.258291	101.556778	101.966858
1.363149	105.152130	107.889175
1.468006	110.292435	110.273361
1.572864	105.257034	106.830597
1.677722	102.624893	102.748871
1.782579	100.755692	101.118088
1.887437	114.498138	114.746094
1.992294	112.285614	118.408203
2.097152	107.669830	108.890533
2.202010	99.506378	97.894669
2.306867	105.123520	104.188919
2.411725	96.635818	96.521378
2.516582	110.454559	111.904144
2.621440	115.079880	115.451813
2.726298	112.934113	115.633011
2.831155	119.915009	121.822357
2.936013	107.173920	109.148026
3.040870	101.671219	102.300644
3.145728	115.623474	112.476349
3.250586	105.228424	106.887817
3.355443	109.329224	108.938217
3.460301	108.699799	108.356476
3.565158	115.261078	116.815567
3.670016	107.059479	106.277466
3.774874	108.966827	111.570358
3.879731	110.874176	112.800598
3.984589	111.808777	110.607147
4.089446	110.921860	112.743378
4.194304	106.582642	106.649399
4.299162	113.725662	116.701126
4.404019	102.357864	102.138519
4.508877	101.432800	103.521347
4.613734	113.697052	112.714767
4.718592	104.446411	108.013153
4.823450	122.385025	124.645233
4.928307	105.352402	104.246140
5.033165	103.302002	104.455948
5.138022	111.074448	110.197067
5.242880	119.352341	123.920441
5.347738	108.280182	107.793808
5.452595	112.829208	114.717484
5.557453	96.368790	98.171234
5.662310	107.355118	106.039047
5.767168	115.823746	122.032166
5.872026	111.083984	107.669830
5.976883	100.021362	99.754333
6.081741	111.665726	115.261078
6.186598	109.481812	108.509064
6.291456	100.250244	100.183487
6.396314	113.248825	116.529465
6.501171	111.131668	112.161636
6.606029	111.341476	115.098953
6.710886	100.488663	101.633072
6.815744	107.727051	107.908249
6.920602	99.506378	98.848343
7.025459	107.898712	108.947754
7.130317	108.385086	109.891891
7.235174	115.938187	119.934082
7.340032	102.119446	103.683472
7.444890	109.796524	110.359192
7.549747	104.217529	104.799271
7.654605	116.662979	117.301941
7.759462	105.371475	109.357834
7.864320	108.871460	110.416412
7.969178	104.112625	101.251602
8.074035	93.593597	97.360611
8.178893	104.131699	104.446411
8.283750	98.628998	98.381042
8.388608	106.258392	106.172562
8.493466	109.090805	111.665726
8.598323	108.566284	108.489990
8.703181	107.030869	108.671188
8.808038	106.143951	106.143951
8.912896	103.521347	103.425980
9.017754	99.782944	100.440979
9.122611	109.777451	106.754303
9.227469	99.048615	103.282928
9.332326	110.569000	109.157562
9.437184	107.774734	108.461380
9.542042	106.000900	106.248856
9.646899	105.485916	106.458664
9.751757	105.905533	107.955933
9.856614	115.270615	117.158890
9.961472	105.934143	107.908249
10.066330	99.430084	99.449158
10.171187	89.302063	89.569092
10.276045	109.748840	110.626221
10.380902	117.549896	118.103027
10.485760	114.068985	115.919113
10.590618	106.697083	106.439590
10.695475	106.420517	109.958649
10.800333	106.048584	106.668472
10.905190	118.408203	121.688843
11.010048	114.164352	115.528107
11.114906	109.958649	109.119415
11.219763	111.427307	114.221573
11.324621	106.287003	108.547211
11.429478	105.257034	105.504990
11.534336	105.810165	106.344223
11.639194	103.292465	104.923248
11.744051	108.718872	108.232498
11.848909	108.432770	114.336014
11.953766	106.678009	108.366013
12.058624	101.623535	101.757050
12.163482	102.291107	102.300644
12.268339	113.630295	115.346909
12.373197	104.751587	108.041763
12.478054	106.763840	108.146667
12.582912	105.419159	108.814240
12.687770	111.169815	108.575821
12.792627	107.584000	107.698441
12.897485	98.791122	101.070404
13.002342	118.865967	120.925903
13.107200	98.381042	98.543167
13.212058	118.379593	116.462708
13.316915	106.897354	110.454559
13.421773	102.443695	102.930069
13.526630	110.769272	111.427307
13.631488	99.420547	100.517273
13.736346	105.466843	103.492737
13.841203	102.901459	106.992722
13.946061	95.987320	95.815659
14.050918	101.757050	105.237961
14.155776	104.484558	107.822418
14.260634	102.195740	101.652145
14.365491	110.874176	114.307404
14.470349	117.864609	119.371414
14.575206	107.307434	105.180740
14.680064	96.263885	97.684860
14.784922	116.386414	118.761063
14.889779	101.156235	103.282928
14.994637	105.867386	106.906891
15.099494	110.931396	112.514496
15.204352	112.676620	115.518570
15.309210	101.795197	101.909637
15.414067	108.089447	109.167099
15.518925	97.141266	102.453232
15.623782	119.876862	119.209290
15.728640	91.543198	95.872879
15.833498	106.010437	107.126236
15.938355	110.740662	111.751556
16.043213	106.382370	106.515884
16.148070	114.040375	116.386414
16.252928	100.936890	102.930069
16.357786	113.029480	118.513107
16.462643	118.627548	118.131638
16.567501	121.927261	121.679306
16.672358	119.142532	119.295120
16.777216	127.325058	127.038956
16.882074	111.904144	113.162994
16.986931	114.421844	117.654800
17.091789	106.954575	109.910965
17.196646	100.364685	98.819733
17.301504	109.186172	113.162994
17.406362	107.774734	110.464096
17.511219	109.500885	112.380981
17.616077	109.987259	110.273361
17.720934	95.472336	97.208023
17.825792	96.445084	96.874237
17.930650	111.484528	115.480423
18.035507	102.996826	100.059509
18.140365	111.169815	113.668442
18.245222	96.225739	96.492767
18.350080	104.084015	106.306076
18.454938	110.473633	110.235214
18.559795	110.740662	113.496780
18.664653	104.503632	106.430054
18.769510	122.032166	125.894547
18.874368	117.549896	121.049881
18.979226	104.885101	102.510452
19.084083	105.724335	108.318329
19.188941	116.729736	118.227005
19.293798	109.128952	111.227036
